BEGIN_SCAN_DATA
	FORMAT=CC-Export V1.9                  
	FILE_CREATION_DATE=26-Jul-2022 10:36:34
	LAST_MODIFIED=26-Jul-2022 10:36:34
	BEGIN_SCAN  1
		TASK_NAME=tba PDD Profiles
		PROGRAM=WaterTankScans
		COMMENT=PDD + 5x X
		MEAS_DATE=09-Feb-2021 16:26:05
		LINAC=TRUEBEAMSN4791
		MODALITY=X
		ISOCENTER=1000.00
		INPLANE_AXIS=Y
		CROSSPLANE_AXIS=X
		DEPTH_AXIS=Depth
		INPLANE_AXIS_DIR=TARGET_GUN
		CROSSPLANE_AXIS_DIR=LEFT_RIGHT
		DEPTH_AXIS_DIR=UP_DOWN
		ENERGY=6.00
		NOMINAL_DMAX=15.00
		SSD=900.00
		SCD=450.00
		WEDGE_ANGLE=0.00
		FIELD_INPLANE=300.00
		FIELD_CROSSPLANE=300.00
		FIELD_TYPE=RECTANGULAR
		GANTRY=0.00
		GANTRY_UPRIGHT_POSITION=0
		GANTRY_ROTATION=CW
		COLL_ANGLE=0.00
		COLL_OFFSET_INPLANE=0.00
		COLL_OFFSET_CROSSPLANE=0.00
		SCAN_DEVICE=BeamScan
		SCAN_DEVICE_SETUP=BARA_LEFT_RIGHT
		ELECTROMETER=BeamScan
		RANGE_FIELD=LOW
		RANGE_REFERENCE=MEDIUM
		DETECTOR=THIMBLE_CHAMBER
		DETECTOR_SUBCODE=SEMIFLEX
		DETECTOR_RADIUS=2.40
		DETECTOR_NAME=PTW 31021 Semiflex 3D (1)
		DETECTOR_SN=142316
		DETECTOR_CALIBRATION=588000000.00
		DETECTOR_IS_CALIBRATED=1
		DETECTOR_REFERENCE=THIMBLE_CHAMBER
		DETECTOR_REFERENCE_SUBCODE=SEMIFLEX
		DETECTOR_REFERENCE_RADIUS=2.75
		DETECTOR_REFERENCE_NAME=PTW 31010 Semiflex (1)
		DETECTOR_REFERENCE_SN=â€”
		DETECTOR_REFERENCE_IS_CALIBRATED=0
		DETECTOR_REFERENCE_CALIBRATION=303000000.00
		DETECTOR_HV=400.0
		DETECTOR_REFERENCE_HV=400.0
		DETECTOR_ORIENTATION=HORIZONTAL
		FILTER=FFF
		SCAN_SPEED_PROFILE=12.50
		SCAN_PROF_SPEED_DEP=DEPTH
		SCAN_SPEED_PDD=12.50
		SCAN_PDD_SPEED_DEP=ENERGY
		DETECTOR_TYPE=T31021
		REF_FIELD_DEPTH=100.00
		REF_FIELD_DEFINED=ISOCENTER
		REF_FIELD_INPLANE=100.00
		REF_FIELD_CROSSPLANE=100.00
		REF_SCAN_POSITIONS=-85.00;-84.00;-83.00;-82.00;-81.00;-80.00;-79.00;-78.00;-77.00;-76.00;-75.00;-74.00;-73.00;-72.00;-71.00;-70.00;-69.00;-68.00;-67.00;-66.00;-65.00;-64.00;-63.00;-62.00;-61.00;-60.00;-59.00;-58.00;-57.00;-56.00;-55.00;-54.00;-53.00;-52.00;-51.00;-50.00;-49.00;-48.00;-47.00;-46.00;-45.00;-44.00;-43.00;-42.00;-41.00;-40.00;-39.00;-38.00;-37.00;-36.00;-35.00;-34.00;-33.00;-32.00;-31.00;-30.00;-29.00;-28.00;-27.00;-26.00;-25.00;-24.00;-23.00;-22.00;-21.00;-20.00;-19.00;-18.00;-17.00;-16.00;-15.00;-14.00;-13.00;-12.00;-11.00;-10.00;-9.00;-8.00;-7.00;-6.00;-5.00;-4.00;-3.00;-2.00;-1.00;0.00;1.00;2.00;3.00;4.00;5.00;6.00;7.00;8.00;9.00;10.00;11.00;12.00;13.00;14.00;15.00;16.00;17.00;18.00;19.00;20.00;21.00;22.00;23.00;24.00;25.00;26.00;27.00;28.00;29.00;30.00;31.00;32.00;33.00;34.00;35.00;36.00;37.00;38.00;39.00;40.00;41.00;42.00;43.00;44.00;45.00;46.00;47.00;48.00;49.00;50.00;51.00;52.00;53.00;54.00;55.00;56.00;57.00;58.00;59.00;60.00;61.00;62.00;63.00;64.00;65.00;66.00;67.00;68.00;69.00;70.00;71.00;72.00;73.00;74.00;75.00;76.00;77.00;78.00;79.00;80.00;81.00;82.00;83.00;84.00;85.00;
		REF_OVERSCAN_FACTOR=1.00
		SCAN_CURVETYPE=CROSSPLANE_PROFILE
		SCAN_DEPTH=15.00
		SCAN_OFFAXIS_INPLANE=0.00
		SCAN_OFFAXIS_CROSSPLANE=0.00
		SCAN_ANGLE=0.00
		SCAN_DIAGONAL=NOT_DIAGONAL
		SCAN_DIRECTION=POSITIVE
		MEAS_MEDIUM=WATER
		MEAS_PRESET=MEAS_CONTINUOUS_REFERENCE_SCAN
		MEAS_TIME=0.080
		MEAS_UNIT=A.U.
		INCLINATION_ANGLE=0.00
		PRESSURE=1013.25
		TEMPERATURE=20.00
		NORM_TEMPERATURE=20.00
		CORRECTION_FACTOR=1.0000
		EXPECTED_MAX_DOSE_RATE=3.00
		EPOM_DEPTH_SHIFT=0.2
		EPOM_MODE=SHIFT_PROTOCOL
		CORRECTIONS=SMOOTHED_CORR;SYMMETRY_CORR;INTERPOLATED_CORR;
		BEGIN_DATA
			-170.00		49.300E-03
			-169.50		49.883E-03
			-169.00		50.466E-03
			-168.50		50.935E-03
			-168.00		51.405E-03
			-167.50		52.065E-03
			-167.00		52.726E-03
			-166.50		53.142E-03
			-166.00		53.558E-03
			-165.50		54.129E-03
			-165.00		54.701E-03
			-164.50		55.323E-03
			-164.00		55.945E-03
			-163.50		56.607E-03
			-163.00		57.269E-03
			-162.50		57.804E-03
			-162.00		58.338E-03
			-161.50		59.111E-03
			-161.00		59.884E-03
			-160.50		60.627E-03
			-160.00		61.371E-03
			-159.50		61.992E-03
			-159.00		62.613E-03
			-158.50		63.485E-03
			-158.00		64.357E-03
			-157.50		65.283E-03
			-157.00		66.209E-03
			-156.50		67.138E-03
			-156.00		68.066E-03
			-155.50		69.047E-03
			-155.00		70.029E-03
			-154.50		70.810E-03
			-154.00		71.591E-03
			-153.50		72.732E-03
			-153.00		73.873E-03
			-152.50		74.814E-03
			-152.00		75.755E-03
			-151.50		77.046E-03
			-151.00		78.337E-03
			-150.50		79.446E-03
			-150.00		80.556E-03
			-149.50		82.192E-03
			-149.00		83.828E-03
			-148.50		85.443E-03
			-148.00		87.059E-03
			-147.50		89.203E-03
			-147.00		91.348E-03
			-146.50		93.739E-03
			-146.00		96.130E-03
			-145.50		99.445E-03
			-145.00		102.76E-03
			-144.50		107.05E-03
			-144.00		111.34E-03
			-143.50		117.78E-03
			-143.00		124.23E-03
			-142.50		134.41E-03
			-142.00		144.58E-03
			-141.50		163.81E-03
			-141.00		183.03E-03
			-140.50		222.12E-03
			-140.00		261.22E-03
			-139.50		323.72E-03
			-139.00		386.22E-03
			-138.50		465.31E-03
			-138.00		544.41E-03
			-137.50		632.00E-03
			-137.00		719.60E-03
			-136.50		801.20E-03
			-136.00		882.79E-03
			-135.50		949.34E-03
			-135.00		1.0159E+00
			-134.50		1.0590E+00
			-134.00		1.1021E+00
			-133.50		1.1258E+00
			-133.00		1.1494E+00
			-132.50		1.1621E+00
			-132.00		1.1748E+00
			-131.50		1.1834E+00
			-131.00		1.1921E+00
			-130.50		1.1990E+00
			-130.00		1.2058E+00
			-129.50		1.2109E+00
			-129.00		1.2159E+00
			-128.50		1.2204E+00
			-128.00		1.2250E+00
			-127.50		1.2284E+00
			-127.00		1.2318E+00
			-126.50		1.2357E+00
			-126.00		1.2395E+00
			-125.50		1.2433E+00
			-125.00		1.2471E+00
			-124.50		1.2506E+00
			-124.00		1.2542E+00
			-123.50		1.2575E+00
			-123.00		1.2608E+00
			-122.50		1.2638E+00
			-122.00		1.2669E+00
			-121.50		1.2698E+00
			-121.00		1.2727E+00
			-120.50		1.2754E+00
			-120.00		1.2782E+00
			-119.50		1.2811E+00
			-119.00		1.2840E+00
			-118.50		1.2872E+00
			-118.00		1.2903E+00
			-117.50		1.2933E+00
			-117.00		1.2963E+00
			-116.50		1.2991E+00
			-116.00		1.3019E+00
			-115.50		1.3047E+00
			-115.00		1.3075E+00
			-114.50		1.3105E+00
			-114.00		1.3134E+00
			-113.50		1.3164E+00
			-113.00		1.3194E+00
			-112.50		1.3224E+00
			-112.00		1.3253E+00
			-111.50		1.3282E+00
			-111.00		1.3311E+00
			-110.50		1.3340E+00
			-110.00		1.3368E+00
			-109.50		1.3396E+00
			-109.00		1.3423E+00
			-108.50		1.3451E+00
			-108.00		1.3480E+00
			-107.50		1.3511E+00
			-107.00		1.3542E+00
			-106.50		1.3572E+00
			-106.00		1.3601E+00
			-105.50		1.3630E+00
			-105.00		1.3659E+00
			-104.50		1.3689E+00
			-104.00		1.3719E+00
			-103.50		1.3747E+00
			-103.00		1.3775E+00
			-102.50		1.3802E+00
			-102.00		1.3828E+00
			-101.50		1.3855E+00
			-101.00		1.3882E+00
			-100.50		1.3911E+00
			-100.00		1.3940E+00
			-99.50		1.3971E+00
			-99.00		1.4002E+00
			-98.50		1.4033E+00
			-98.00		1.4065E+00
			-97.50		1.4097E+00
			-97.00		1.4129E+00
			-96.50		1.4158E+00
			-96.00		1.4188E+00
			-95.50		1.4217E+00
			-95.00		1.4246E+00
			-94.50		1.4275E+00
			-94.00		1.4304E+00
			-93.50		1.4336E+00
			-93.00		1.4367E+00
			-92.50		1.4400E+00
			-92.00		1.4433E+00
			-91.50		1.4464E+00
			-91.00		1.4495E+00
			-90.50		1.4525E+00
			-90.00		1.4555E+00
			-89.50		1.4584E+00
			-89.00		1.4613E+00
			-88.50		1.4641E+00
			-88.00		1.4668E+00
			-87.50		1.4694E+00
			-87.00		1.4721E+00
			-86.50		1.4749E+00
			-86.00		1.4777E+00
			-85.50		1.4808E+00
			-85.00		1.4838E+00
			-84.50		1.4868E+00
			-84.00		1.4898E+00
			-83.50		1.4927E+00
			-83.00		1.4957E+00
			-82.50		1.4988E+00
			-82.00		1.5019E+00
			-81.50		1.5052E+00
			-81.00		1.5085E+00
			-80.50		1.5117E+00
			-80.00		1.5150E+00
			-79.50		1.5180E+00
			-79.00		1.5211E+00
			-78.50		1.5242E+00
			-78.00		1.5273E+00
			-77.50		1.5303E+00
			-77.00		1.5333E+00
			-76.50		1.5365E+00
			-76.00		1.5397E+00
			-75.50		1.5430E+00
			-75.00		1.5463E+00
			-74.50		1.5494E+00
			-74.00		1.5524E+00
			-73.50		1.5554E+00
			-73.00		1.5584E+00
			-72.50		1.5616E+00
			-72.00		1.5647E+00
			-71.50		1.5677E+00
			-71.00		1.5708E+00
			-70.50		1.5737E+00
			-70.00		1.5765E+00
			-69.50		1.5795E+00
			-69.00		1.5824E+00
			-68.50		1.5857E+00
			-68.00		1.5891E+00
			-67.50		1.5926E+00
			-67.00		1.5961E+00
			-66.50		1.5994E+00
			-66.00		1.6028E+00
			-65.50		1.6061E+00
			-65.00		1.6093E+00
			-64.50		1.6127E+00
			-64.00		1.6161E+00
			-63.50		1.6193E+00
			-63.00		1.6225E+00
			-62.50		1.6257E+00
			-62.00		1.6289E+00
			-61.50		1.6320E+00
			-61.00		1.6350E+00
			-60.50		1.6379E+00
			-60.00		1.6408E+00
			-59.50		1.6437E+00
			-59.00		1.6465E+00
			-58.50		1.6495E+00
			-58.00		1.6525E+00
			-57.50		1.6559E+00
			-57.00		1.6593E+00
			-56.50		1.6628E+00
			-56.00		1.6662E+00
			-55.50		1.6694E+00
			-55.00		1.6725E+00
			-54.50		1.6753E+00
			-54.00		1.6782E+00
			-53.50		1.6811E+00
			-53.00		1.6839E+00
			-52.50		1.6869E+00
			-52.00		1.6900E+00
			-51.50		1.6932E+00
			-51.00		1.6963E+00
			-50.50		1.6995E+00
			-50.00		1.7027E+00
			-49.50		1.7059E+00
			-49.00		1.7090E+00
			-48.50		1.7120E+00
			-48.00		1.7150E+00
			-47.50		1.7181E+00
			-47.00		1.7211E+00
			-46.50		1.7242E+00
			-46.00		1.7274E+00
			-45.50		1.7306E+00
			-45.00		1.7339E+00
			-44.50		1.7370E+00
			-44.00		1.7401E+00
			-43.50		1.7431E+00
			-43.00		1.7461E+00
			-42.50		1.7490E+00
			-42.00		1.7520E+00
			-41.50		1.7549E+00
			-41.00		1.7578E+00
			-40.50		1.7608E+00
			-40.00		1.7639E+00
			-39.50		1.7669E+00
			-39.00		1.7699E+00
			-38.50		1.7729E+00
			-38.00		1.7758E+00
			-37.50		1.7787E+00
			-37.00		1.7817E+00
			-36.50		1.7845E+00
			-36.00		1.7872E+00
			-35.50		1.7900E+00
			-35.00		1.7928E+00
			-34.50		1.7957E+00
			-34.00		1.7986E+00
			-33.50		1.8016E+00
			-33.00		1.8046E+00
			-32.50		1.8075E+00
			-32.00		1.8104E+00
			-31.50		1.8131E+00
			-31.00		1.8159E+00
			-30.50		1.8185E+00
			-30.00		1.8212E+00
			-29.50		1.8239E+00
			-29.00		1.8266E+00
			-28.50		1.8292E+00
			-28.00		1.8319E+00
			-27.50		1.8340E+00
			-27.00		1.8361E+00
			-26.50		1.8382E+00
			-26.00		1.8404E+00
			-25.50		1.8429E+00
			-25.00		1.8454E+00
			-24.50		1.8478E+00
			-24.00		1.8503E+00
			-23.50		1.8526E+00
			-23.00		1.8548E+00
			-22.50		1.8568E+00
			-22.00		1.8588E+00
			-21.50		1.8606E+00
			-21.00		1.8624E+00
			-20.50		1.8644E+00
			-20.00		1.8665E+00
			-19.50		1.8690E+00
			-19.00		1.8714E+00
			-18.50		1.8738E+00
			-18.00		1.8763E+00
			-17.50		1.8783E+00
			-17.00		1.8803E+00
			-16.50		1.8820E+00
			-16.00		1.8836E+00
			-15.50		1.8849E+00
			-15.00		1.8863E+00
			-14.50		1.8876E+00
			-14.00		1.8889E+00
			-13.50		1.8903E+00
			-13.00		1.8917E+00
			-12.50		1.8933E+00
			-12.00		1.8949E+00
			-11.50		1.8963E+00
			-11.00		1.8976E+00
			-10.50		1.8989E+00
			-10.00		1.9002E+00
			-9.50		1.9016E+00
			-9.00		1.9029E+00
			-8.50		1.9039E+00
			-8.00		1.9050E+00
			-7.50		1.9056E+00
			-7.00		1.9062E+00
			-6.50		1.9067E+00
			-6.00		1.9073E+00
			-5.50		1.9081E+00
			-5.00		1.9088E+00
			-4.50		1.9095E+00
			-4.00		1.9102E+00
			-3.50		1.9107E+00
			-3.00		1.9111E+00
			-2.50		1.9113E+00
			-2.00		1.9115E+00
			-1.50		1.9115E+00
			-1.00		1.9115E+00
			-0.50		1.9115E+00
			0.00		1.9115E+00
			0.50		1.9115E+00
			1.00		1.9115E+00
			1.50		1.9115E+00
			2.00		1.9115E+00
			2.50		1.9113E+00
			3.00		1.9111E+00
			3.50		1.9107E+00
			4.00		1.9102E+00
			4.50		1.9095E+00
			5.00		1.9088E+00
			5.50		1.9081E+00
			6.00		1.9073E+00
			6.50		1.9067E+00
			7.00		1.9062E+00
			7.50		1.9056E+00
			8.00		1.9050E+00
			8.50		1.9039E+00
			9.00		1.9029E+00
			9.50		1.9016E+00
			10.00		1.9002E+00
			10.50		1.8989E+00
			11.00		1.8976E+00
			11.50		1.8963E+00
			12.00		1.8949E+00
			12.50		1.8933E+00
			13.00		1.8917E+00
			13.50		1.8903E+00
			14.00		1.8889E+00
			14.50		1.8876E+00
			15.00		1.8863E+00
			15.50		1.8849E+00
			16.00		1.8836E+00
			16.50		1.8820E+00
			17.00		1.8803E+00
			17.50		1.8783E+00
			18.00		1.8763E+00
			18.50		1.8738E+00
			19.00		1.8714E+00
			19.50		1.8690E+00
			20.00		1.8665E+00
			20.50		1.8644E+00
			21.00		1.8624E+00
			21.50		1.8606E+00
			22.00		1.8588E+00
			22.50		1.8568E+00
			23.00		1.8548E+00
			23.50		1.8526E+00
			24.00		1.8503E+00
			24.50		1.8478E+00
			25.00		1.8454E+00
			25.50		1.8429E+00
			26.00		1.8404E+00
			26.50		1.8382E+00
			27.00		1.8361E+00
			27.50		1.8340E+00
			28.00		1.8319E+00
			28.50		1.8292E+00
			29.00		1.8266E+00
			29.50		1.8239E+00
			30.00		1.8212E+00
			30.50		1.8185E+00
			31.00		1.8159E+00
			31.50		1.8131E+00
			32.00		1.8104E+00
			32.50		1.8075E+00
			33.00		1.8046E+00
			33.50		1.8016E+00
			34.00		1.7986E+00
			34.50		1.7957E+00
			35.00		1.7928E+00
			35.50		1.7900E+00
			36.00		1.7872E+00
			36.50		1.7845E+00
			37.00		1.7817E+00
			37.50		1.7787E+00
			38.00		1.7758E+00
			38.50		1.7729E+00
			39.00		1.7699E+00
			39.50		1.7669E+00
			40.00		1.7639E+00
			40.50		1.7608E+00
			41.00		1.7578E+00
			41.50		1.7549E+00
			42.00		1.7520E+00
			42.50		1.7490E+00
			43.00		1.7461E+00
			43.50		1.7431E+00
			44.00		1.7401E+00
			44.50		1.7370E+00
			45.00		1.7339E+00
			45.50		1.7306E+00
			46.00		1.7274E+00
			46.50		1.7242E+00
			47.00		1.7211E+00
			47.50		1.7181E+00
			48.00		1.7150E+00
			48.50		1.7120E+00
			49.00		1.7090E+00
			49.50		1.7059E+00
			50.00		1.7027E+00
			50.50		1.6995E+00
			51.00		1.6963E+00
			51.50		1.6932E+00
			52.00		1.6900E+00
			52.50		1.6869E+00
			53.00		1.6839E+00
			53.50		1.6811E+00
			54.00		1.6782E+00
			54.50		1.6753E+00
			55.00		1.6725E+00
			55.50		1.6694E+00
			56.00		1.6662E+00
			56.50		1.6628E+00
			57.00		1.6593E+00
			57.50		1.6559E+00
			58.00		1.6525E+00
			58.50		1.6495E+00
			59.00		1.6465E+00
			59.50		1.6437E+00
			60.00		1.6408E+00
			60.50		1.6379E+00
			61.00		1.6350E+00
			61.50		1.6320E+00
			62.00		1.6289E+00
			62.50		1.6257E+00
			63.00		1.6225E+00
			63.50		1.6193E+00
			64.00		1.6161E+00
			64.50		1.6127E+00
			65.00		1.6093E+00
			65.50		1.6061E+00
			66.00		1.6028E+00
			66.50		1.5994E+00
			67.00		1.5961E+00
			67.50		1.5926E+00
			68.00		1.5891E+00
			68.50		1.5857E+00
			69.00		1.5824E+00
			69.50		1.5795E+00
			70.00		1.5765E+00
			70.50		1.5737E+00
			71.00		1.5708E+00
			71.50		1.5677E+00
			72.00		1.5647E+00
			72.50		1.5616E+00
			73.00		1.5584E+00
			73.50		1.5554E+00
			74.00		1.5524E+00
			74.50		1.5494E+00
			75.00		1.5463E+00
			75.50		1.5430E+00
			76.00		1.5397E+00
			76.50		1.5365E+00
			77.00		1.5333E+00
			77.50		1.5303E+00
			78.00		1.5273E+00
			78.50		1.5242E+00
			79.00		1.5211E+00
			79.50		1.5180E+00
			80.00		1.5150E+00
			80.50		1.5117E+00
			81.00		1.5085E+00
			81.50		1.5052E+00
			82.00		1.5019E+00
			82.50		1.4988E+00
			83.00		1.4957E+00
			83.50		1.4927E+00
			84.00		1.4898E+00
			84.50		1.4868E+00
			85.00		1.4838E+00
			85.50		1.4808E+00
			86.00		1.4777E+00
			86.50		1.4749E+00
			87.00		1.4721E+00
			87.50		1.4694E+00
			88.00		1.4668E+00
			88.50		1.4641E+00
			89.00		1.4613E+00
			89.50		1.4584E+00
			90.00		1.4555E+00
			90.50		1.4525E+00
			91.00		1.4495E+00
			91.50		1.4464E+00
			92.00		1.4433E+00
			92.50		1.4400E+00
			93.00		1.4367E+00
			93.50		1.4336E+00
			94.00		1.4304E+00
			94.50		1.4275E+00
			95.00		1.4246E+00
			95.50		1.4217E+00
			96.00		1.4188E+00
			96.50		1.4158E+00
			97.00		1.4129E+00
			97.50		1.4097E+00
			98.00		1.4065E+00
			98.50		1.4033E+00
			99.00		1.4002E+00
			99.50		1.3971E+00
			100.00		1.3940E+00
			100.50		1.3911E+00
			101.00		1.3882E+00
			101.50		1.3855E+00
			102.00		1.3828E+00
			102.50		1.3802E+00
			103.00		1.3775E+00
			103.50		1.3747E+00
			104.00		1.3719E+00
			104.50		1.3689E+00
			105.00		1.3659E+00
			105.50		1.3630E+00
			106.00		1.3601E+00
			106.50		1.3572E+00
			107.00		1.3542E+00
			107.50		1.3511E+00
			108.00		1.3480E+00
			108.50		1.3451E+00
			109.00		1.3423E+00
			109.50		1.3396E+00
			110.00		1.3368E+00
			110.50		1.3340E+00
			111.00		1.3311E+00
			111.50		1.3282E+00
			112.00		1.3253E+00
			112.50		1.3224E+00
			113.00		1.3194E+00
			113.50		1.3164E+00
			114.00		1.3134E+00
			114.50		1.3105E+00
			115.00		1.3075E+00
			115.50		1.3047E+00
			116.00		1.3019E+00
			116.50		1.2991E+00
			117.00		1.2963E+00
			117.50		1.2933E+00
			118.00		1.2903E+00
			118.50		1.2872E+00
			119.00		1.2840E+00
			119.50		1.2811E+00
			120.00		1.2782E+00
			120.50		1.2754E+00
			121.00		1.2727E+00
			121.50		1.2698E+00
			122.00		1.2669E+00
			122.50		1.2638E+00
			123.00		1.2608E+00
			123.50		1.2575E+00
			124.00		1.2542E+00
			124.50		1.2506E+00
			125.00		1.2471E+00
			125.50		1.2433E+00
			126.00		1.2395E+00
			126.50		1.2357E+00
			127.00		1.2318E+00
			127.50		1.2284E+00
			128.00		1.2250E+00
			128.50		1.2204E+00
			129.00		1.2159E+00
			129.50		1.2109E+00
			130.00		1.2058E+00
			130.50		1.1990E+00
			131.00		1.1921E+00
			131.50		1.1834E+00
			132.00		1.1748E+00
			132.50		1.1621E+00
			133.00		1.1494E+00
			133.50		1.1258E+00
			134.00		1.1021E+00
			134.50		1.0590E+00
			135.00		1.0159E+00
			135.50		949.34E-03
			136.00		882.79E-03
			136.50		801.20E-03
			137.00		719.60E-03
			137.50		632.00E-03
			138.00		544.41E-03
			138.50		465.31E-03
			139.00		386.22E-03
			139.50		323.72E-03
			140.00		261.22E-03
			140.50		222.12E-03
			141.00		183.03E-03
			141.50		163.81E-03
			142.00		144.58E-03
			142.50		134.41E-03
			143.00		124.23E-03
			143.50		117.78E-03
			144.00		111.34E-03
			144.50		107.05E-03
			145.00		102.76E-03
			145.50		99.445E-03
			146.00		96.130E-03
			146.50		93.739E-03
			147.00		91.348E-03
			147.50		89.203E-03
			148.00		87.059E-03
			148.50		85.443E-03
			149.00		83.828E-03
			149.50		82.192E-03
			150.00		80.556E-03
			150.50		79.446E-03
			151.00		78.337E-03
			151.50		77.046E-03
			152.00		75.755E-03
			152.50		74.814E-03
			153.00		73.873E-03
			153.50		72.732E-03
			154.00		71.591E-03
			154.50		70.810E-03
			155.00		70.029E-03
			155.50		69.047E-03
			156.00		68.066E-03
			156.50		67.138E-03
			157.00		66.209E-03
			157.50		65.283E-03
			158.00		64.357E-03
			158.50		63.485E-03
			159.00		62.613E-03
			159.50		61.992E-03
			160.00		61.371E-03
			160.50		60.627E-03
			161.00		59.884E-03
			161.50		59.111E-03
			162.00		58.338E-03
			162.50		57.804E-03
			163.00		57.269E-03
			163.50		56.607E-03
			164.00		55.945E-03
			164.50		55.323E-03
			165.00		54.701E-03
			165.50		54.129E-03
			166.00		53.558E-03
			166.50		53.142E-03
			167.00		52.726E-03
			167.50		52.065E-03
			168.00		51.405E-03
			168.50		50.935E-03
			169.00		50.466E-03
			169.50		49.883E-03
			170.00		49.300E-03
		END_DATA
	END_SCAN  1
	BEGIN_SCAN  2
		TASK_NAME=tba PDD Profiles
		PROGRAM=WaterTankScans
		COMMENT=PDD + 5x X
		MEAS_DATE=09-Feb-2021 16:26:41
		LINAC=TRUEBEAMSN4791
		MODALITY=X
		ISOCENTER=1000.00
		INPLANE_AXIS=Y
		CROSSPLANE_AXIS=X
		DEPTH_AXIS=Depth
		INPLANE_AXIS_DIR=TARGET_GUN
		CROSSPLANE_AXIS_DIR=LEFT_RIGHT
		DEPTH_AXIS_DIR=UP_DOWN
		ENERGY=6.00
		NOMINAL_DMAX=15.00
		SSD=900.00
		SCD=450.00
		WEDGE_ANGLE=0.00
		FIELD_INPLANE=300.00
		FIELD_CROSSPLANE=300.00
		FIELD_TYPE=RECTANGULAR
		GANTRY=0.00
		GANTRY_UPRIGHT_POSITION=0
		GANTRY_ROTATION=CW
		COLL_ANGLE=0.00
		COLL_OFFSET_INPLANE=0.00
		COLL_OFFSET_CROSSPLANE=0.00
		SCAN_DEVICE=BeamScan
		SCAN_DEVICE_SETUP=BARA_LEFT_RIGHT
		ELECTROMETER=BeamScan
		RANGE_FIELD=LOW
		RANGE_REFERENCE=MEDIUM
		DETECTOR=THIMBLE_CHAMBER
		DETECTOR_SUBCODE=SEMIFLEX
		DETECTOR_RADIUS=2.40
		DETECTOR_NAME=PTW 31021 Semiflex 3D (1)
		DETECTOR_SN=142316
		DETECTOR_CALIBRATION=588000000.00
		DETECTOR_IS_CALIBRATED=1
		DETECTOR_REFERENCE=THIMBLE_CHAMBER
		DETECTOR_REFERENCE_SUBCODE=SEMIFLEX
		DETECTOR_REFERENCE_RADIUS=2.75
		DETECTOR_REFERENCE_NAME=PTW 31010 Semiflex (1)
		DETECTOR_REFERENCE_SN=â€”
		DETECTOR_REFERENCE_IS_CALIBRATED=0
		DETECTOR_REFERENCE_CALIBRATION=303000000.00
		DETECTOR_HV=400.0
		DETECTOR_REFERENCE_HV=400.0
		DETECTOR_ORIENTATION=HORIZONTAL
		FILTER=FFF
		SCAN_SPEED_PROFILE=12.50
		SCAN_PROF_SPEED_DEP=DEPTH
		SCAN_SPEED_PDD=12.50
		SCAN_PDD_SPEED_DEP=ENERGY
		DETECTOR_TYPE=T31021
		REF_FIELD_DEPTH=100.00
		REF_FIELD_DEFINED=ISOCENTER
		REF_FIELD_INPLANE=100.00
		REF_FIELD_CROSSPLANE=100.00
		REF_SCAN_POSITIONS=-85.00;-84.00;-83.00;-82.00;-81.00;-80.00;-79.00;-78.00;-77.00;-76.00;-75.00;-74.00;-73.00;-72.00;-71.00;-70.00;-69.00;-68.00;-67.00;-66.00;-65.00;-64.00;-63.00;-62.00;-61.00;-60.00;-59.00;-58.00;-57.00;-56.00;-55.00;-54.00;-53.00;-52.00;-51.00;-50.00;-49.00;-48.00;-47.00;-46.00;-45.00;-44.00;-43.00;-42.00;-41.00;-40.00;-39.00;-38.00;-37.00;-36.00;-35.00;-34.00;-33.00;-32.00;-31.00;-30.00;-29.00;-28.00;-27.00;-26.00;-25.00;-24.00;-23.00;-22.00;-21.00;-20.00;-19.00;-18.00;-17.00;-16.00;-15.00;-14.00;-13.00;-12.00;-11.00;-10.00;-9.00;-8.00;-7.00;-6.00;-5.00;-4.00;-3.00;-2.00;-1.00;0.00;1.00;2.00;3.00;4.00;5.00;6.00;7.00;8.00;9.00;10.00;11.00;12.00;13.00;14.00;15.00;16.00;17.00;18.00;19.00;20.00;21.00;22.00;23.00;24.00;25.00;26.00;27.00;28.00;29.00;30.00;31.00;32.00;33.00;34.00;35.00;36.00;37.00;38.00;39.00;40.00;41.00;42.00;43.00;44.00;45.00;46.00;47.00;48.00;49.00;50.00;51.00;52.00;53.00;54.00;55.00;56.00;57.00;58.00;59.00;60.00;61.00;62.00;63.00;64.00;65.00;66.00;67.00;68.00;69.00;70.00;71.00;72.00;73.00;74.00;75.00;76.00;77.00;78.00;79.00;80.00;81.00;82.00;83.00;84.00;85.00;
		REF_OVERSCAN_FACTOR=1.00
		SCAN_CURVETYPE=CROSSPLANE_PROFILE
		SCAN_DEPTH=50.00
		SCAN_OFFAXIS_INPLANE=0.00
		SCAN_OFFAXIS_CROSSPLANE=0.00
		SCAN_ANGLE=0.00
		SCAN_DIAGONAL=NOT_DIAGONAL
		SCAN_DIRECTION=NEGATIVE
		MEAS_MEDIUM=WATER
		MEAS_PRESET=MEAS_CONTINUOUS_REFERENCE_SCAN
		MEAS_TIME=0.080
		MEAS_UNIT=A.U.
		INCLINATION_ANGLE=0.00
		PRESSURE=1013.25
		TEMPERATURE=20.00
		NORM_TEMPERATURE=20.00
		CORRECTION_FACTOR=1.0000
		EXPECTED_MAX_DOSE_RATE=3.00
		EPOM_DEPTH_SHIFT=0.2
		EPOM_MODE=SHIFT_PROTOCOL
		CORRECTIONS=SMOOTHED_CORR;SYMMETRY_CORR;INTERPOLATED_CORR;
		BEGIN_DATA
			-176.00		61.783E-03
			-175.50		62.472E-03
			-175.00		63.162E-03
			-174.50		63.956E-03
			-174.00		64.749E-03
			-173.50		65.550E-03
			-173.00		66.351E-03
			-172.50		66.977E-03
			-172.00		67.602E-03
			-171.50		68.232E-03
			-171.00		68.861E-03
			-170.50		69.837E-03
			-170.00		70.813E-03
			-169.50		71.831E-03
			-169.00		72.849E-03
			-168.50		73.567E-03
			-168.00		74.285E-03
			-167.50		75.401E-03
			-167.00		76.518E-03
			-166.50		77.339E-03
			-166.00		78.159E-03
			-165.50		79.214E-03
			-165.00		80.270E-03
			-164.50		81.211E-03
			-164.00		82.153E-03
			-163.50		83.195E-03
			-163.00		84.237E-03
			-162.50		85.409E-03
			-162.00		86.582E-03
			-161.50		88.030E-03
			-161.00		89.478E-03
			-160.50		90.751E-03
			-160.00		92.023E-03
			-159.50		93.258E-03
			-159.00		94.493E-03
			-158.50		95.960E-03
			-158.00		97.427E-03
			-157.50		99.064E-03
			-157.00		100.70E-03
			-156.50		102.18E-03
			-156.00		103.67E-03
			-155.50		105.14E-03
			-155.00		106.61E-03
			-154.50		108.61E-03
			-154.00		110.61E-03
			-153.50		112.85E-03
			-153.00		115.09E-03
			-152.50		117.62E-03
			-152.00		120.16E-03
			-151.50		123.25E-03
			-151.00		126.34E-03
			-150.50		129.84E-03
			-150.00		133.33E-03
			-149.50		138.15E-03
			-149.00		142.98E-03
			-148.50		149.87E-03
			-148.00		156.75E-03
			-147.50		167.74E-03
			-147.00		178.74E-03
			-146.50		197.96E-03
			-146.00		217.18E-03
			-145.50		252.45E-03
			-145.00		287.73E-03
			-144.50		338.19E-03
			-144.00		388.65E-03
			-143.50		450.94E-03
			-143.00		513.22E-03
			-142.50		579.82E-03
			-142.00		646.42E-03
			-141.50		707.11E-03
			-141.00		767.81E-03
			-140.50		814.77E-03
			-140.00		861.73E-03
			-139.50		891.78E-03
			-139.00		921.82E-03
			-138.50		939.06E-03
			-138.00		956.31E-03
			-137.50		966.96E-03
			-137.00		977.62E-03
			-136.50		985.13E-03
			-136.00		992.63E-03
			-135.50		998.57E-03
			-135.00		1.0045E+00
			-134.50		1.0099E+00
			-134.00		1.0152E+00
			-133.50		1.0195E+00
			-133.00		1.0238E+00
			-132.50		1.0280E+00
			-132.00		1.0322E+00
			-131.50		1.0362E+00
			-131.00		1.0403E+00
			-130.50		1.0438E+00
			-130.00		1.0473E+00
			-129.50		1.0504E+00
			-129.00		1.0535E+00
			-128.50		1.0565E+00
			-128.00		1.0594E+00
			-127.50		1.0626E+00
			-127.00		1.0658E+00
			-126.50		1.0691E+00
			-126.00		1.0724E+00
			-125.50		1.0757E+00
			-125.00		1.0790E+00
			-124.50		1.0819E+00
			-124.00		1.0849E+00
			-123.50		1.0877E+00
			-123.00		1.0905E+00
			-122.50		1.0933E+00
			-122.00		1.0961E+00
			-121.50		1.0989E+00
			-121.00		1.1016E+00
			-120.50		1.1045E+00
			-120.00		1.1074E+00
			-119.50		1.1101E+00
			-119.00		1.1128E+00
			-118.50		1.1152E+00
			-118.00		1.1177E+00
			-117.50		1.1202E+00
			-117.00		1.1227E+00
			-116.50		1.1253E+00
			-116.00		1.1279E+00
			-115.50		1.1307E+00
			-115.00		1.1334E+00
			-114.50		1.1361E+00
			-114.00		1.1388E+00
			-113.50		1.1414E+00
			-113.00		1.1441E+00
			-112.50		1.1467E+00
			-112.00		1.1493E+00
			-111.50		1.1518E+00
			-111.00		1.1544E+00
			-110.50		1.1571E+00
			-110.00		1.1597E+00
			-109.50		1.1625E+00
			-109.00		1.1653E+00
			-108.50		1.1680E+00
			-108.00		1.1707E+00
			-107.50		1.1732E+00
			-107.00		1.1757E+00
			-106.50		1.1781E+00
			-106.00		1.1806E+00
			-105.50		1.1831E+00
			-105.00		1.1855E+00
			-104.50		1.1881E+00
			-104.00		1.1908E+00
			-103.50		1.1937E+00
			-103.00		1.1966E+00
			-102.50		1.1992E+00
			-102.00		1.2018E+00
			-101.50		1.2041E+00
			-101.00		1.2065E+00
			-100.50		1.2089E+00
			-100.00		1.2113E+00
			-99.50		1.2139E+00
			-99.00		1.2164E+00
			-98.50		1.2190E+00
			-98.00		1.2217E+00
			-97.50		1.2241E+00
			-97.00		1.2266E+00
			-96.50		1.2291E+00
			-96.00		1.2315E+00
			-95.50		1.2342E+00
			-95.00		1.2369E+00
			-94.50		1.2397E+00
			-94.00		1.2424E+00
			-93.50		1.2452E+00
			-93.00		1.2480E+00
			-92.50		1.2507E+00
			-92.00		1.2534E+00
			-91.50		1.2562E+00
			-91.00		1.2589E+00
			-90.50		1.2617E+00
			-90.00		1.2645E+00
			-89.50		1.2671E+00
			-89.00		1.2696E+00
			-88.50		1.2722E+00
			-88.00		1.2747E+00
			-87.50		1.2774E+00
			-87.00		1.2801E+00
			-86.50		1.2829E+00
			-86.00		1.2858E+00
			-85.50		1.2885E+00
			-85.00		1.2912E+00
			-84.50		1.2937E+00
			-84.00		1.2961E+00
			-83.50		1.2985E+00
			-83.00		1.3009E+00
			-82.50		1.3032E+00
			-82.00		1.3055E+00
			-81.50		1.3077E+00
			-81.00		1.3100E+00
			-80.50		1.3124E+00
			-80.00		1.3149E+00
			-79.50		1.3177E+00
			-79.00		1.3205E+00
			-78.50		1.3234E+00
			-78.00		1.3263E+00
			-77.50		1.3289E+00
			-77.00		1.3315E+00
			-76.50		1.3342E+00
			-76.00		1.3368E+00
			-75.50		1.3396E+00
			-75.00		1.3424E+00
			-74.50		1.3451E+00
			-74.00		1.3479E+00
			-73.50		1.3506E+00
			-73.00		1.3533E+00
			-72.50		1.3559E+00
			-72.00		1.3586E+00
			-71.50		1.3612E+00
			-71.00		1.3639E+00
			-70.50		1.3665E+00
			-70.00		1.3691E+00
			-69.50		1.3715E+00
			-69.00		1.3740E+00
			-68.50		1.3764E+00
			-68.00		1.3788E+00
			-67.50		1.3814E+00
			-67.00		1.3839E+00
			-66.50		1.3866E+00
			-66.00		1.3893E+00
			-65.50		1.3922E+00
			-65.00		1.3951E+00
			-64.50		1.3980E+00
			-64.00		1.4009E+00
			-63.50		1.4036E+00
			-63.00		1.4063E+00
			-62.50		1.4086E+00
			-62.00		1.4110E+00
			-61.50		1.4133E+00
			-61.00		1.4157E+00
			-60.50		1.4181E+00
			-60.00		1.4206E+00
			-59.50		1.4233E+00
			-59.00		1.4260E+00
			-58.50		1.4289E+00
			-58.00		1.4318E+00
			-57.50		1.4346E+00
			-57.00		1.4374E+00
			-56.50		1.4400E+00
			-56.00		1.4426E+00
			-55.50		1.4452E+00
			-55.00		1.4477E+00
			-54.50		1.4503E+00
			-54.00		1.4528E+00
			-53.50		1.4552E+00
			-53.00		1.4576E+00
			-52.50		1.4599E+00
			-52.00		1.4621E+00
			-51.50		1.4645E+00
			-51.00		1.4669E+00
			-50.50		1.4697E+00
			-50.00		1.4724E+00
			-49.50		1.4755E+00
			-49.00		1.4785E+00
			-48.50		1.4815E+00
			-48.00		1.4846E+00
			-47.50		1.4873E+00
			-47.00		1.4900E+00
			-46.50		1.4922E+00
			-46.00		1.4945E+00
			-45.50		1.4968E+00
			-45.00		1.4991E+00
			-44.50		1.5016E+00
			-44.00		1.5041E+00
			-43.50		1.5064E+00
			-43.00		1.5088E+00
			-42.50		1.5110E+00
			-42.00		1.5132E+00
			-41.50		1.5156E+00
			-41.00		1.5180E+00
			-40.50		1.5205E+00
			-40.00		1.5230E+00
			-39.50		1.5255E+00
			-39.00		1.5280E+00
			-38.50		1.5304E+00
			-38.00		1.5329E+00
			-37.50		1.5352E+00
			-37.00		1.5376E+00
			-36.50		1.5399E+00
			-36.00		1.5422E+00
			-35.50		1.5443E+00
			-35.00		1.5465E+00
			-34.50		1.5486E+00
			-34.00		1.5507E+00
			-33.50		1.5531E+00
			-33.00		1.5554E+00
			-32.50		1.5577E+00
			-32.00		1.5601E+00
			-31.50		1.5623E+00
			-31.00		1.5645E+00
			-30.50		1.5666E+00
			-30.00		1.5688E+00
			-29.50		1.5708E+00
			-29.00		1.5728E+00
			-28.50		1.5748E+00
			-28.00		1.5768E+00
			-27.50		1.5789E+00
			-27.00		1.5809E+00
			-26.50		1.5829E+00
			-26.00		1.5849E+00
			-25.50		1.5868E+00
			-25.00		1.5887E+00
			-24.50		1.5907E+00
			-24.00		1.5926E+00
			-23.50		1.5944E+00
			-23.00		1.5963E+00
			-22.50		1.5980E+00
			-22.00		1.5998E+00
			-21.50		1.6015E+00
			-21.00		1.6033E+00
			-20.50		1.6049E+00
			-20.00		1.6065E+00
			-19.50		1.6079E+00
			-19.00		1.6093E+00
			-18.50		1.6108E+00
			-18.00		1.6123E+00
			-17.50		1.6141E+00
			-17.00		1.6158E+00
			-16.50		1.6174E+00
			-16.00		1.6190E+00
			-15.50		1.6201E+00
			-15.00		1.6212E+00
			-14.50		1.6221E+00
			-14.00		1.6229E+00
			-13.50		1.6239E+00
			-13.00		1.6249E+00
			-12.50		1.6260E+00
			-12.00		1.6272E+00
			-11.50		1.6282E+00
			-11.00		1.6292E+00
			-10.50		1.6300E+00
			-10.00		1.6307E+00
			-9.50		1.6314E+00
			-9.00		1.6320E+00
			-8.50		1.6328E+00
			-8.00		1.6335E+00
			-7.50		1.6343E+00
			-7.00		1.6351E+00
			-6.50		1.6358E+00
			-6.00		1.6365E+00
			-5.50		1.6370E+00
			-5.00		1.6374E+00
			-4.50		1.6378E+00
			-4.00		1.6382E+00
			-3.50		1.6388E+00
			-3.00		1.6393E+00
			-2.50		1.6399E+00
			-2.00		1.6405E+00
			-1.50		1.6407E+00
			-1.00		1.6409E+00
			-0.50		1.6409E+00
			0.00		1.6408E+00
			0.50		1.6409E+00
			1.00		1.6409E+00
			1.50		1.6407E+00
			2.00		1.6405E+00
			2.50		1.6399E+00
			3.00		1.6393E+00
			3.50		1.6388E+00
			4.00		1.6382E+00
			4.50		1.6378E+00
			5.00		1.6374E+00
			5.50		1.6370E+00
			6.00		1.6365E+00
			6.50		1.6358E+00
			7.00		1.6351E+00
			7.50		1.6343E+00
			8.00		1.6335E+00
			8.50		1.6328E+00
			9.00		1.6320E+00
			9.50		1.6314E+00
			10.00		1.6307E+00
			10.50		1.6300E+00
			11.00		1.6292E+00
			11.50		1.6282E+00
			12.00		1.6272E+00
			12.50		1.6260E+00
			13.00		1.6249E+00
			13.50		1.6239E+00
			14.00		1.6229E+00
			14.50		1.6221E+00
			15.00		1.6212E+00
			15.50		1.6201E+00
			16.00		1.6190E+00
			16.50		1.6174E+00
			17.00		1.6158E+00
			17.50		1.6141E+00
			18.00		1.6123E+00
			18.50		1.6108E+00
			19.00		1.6093E+00
			19.50		1.6079E+00
			20.00		1.6065E+00
			20.50		1.6049E+00
			21.00		1.6033E+00
			21.50		1.6015E+00
			22.00		1.5998E+00
			22.50		1.5980E+00
			23.00		1.5963E+00
			23.50		1.5944E+00
			24.00		1.5926E+00
			24.50		1.5907E+00
			25.00		1.5887E+00
			25.50		1.5868E+00
			26.00		1.5849E+00
			26.50		1.5829E+00
			27.00		1.5809E+00
			27.50		1.5789E+00
			28.00		1.5768E+00
			28.50		1.5748E+00
			29.00		1.5728E+00
			29.50		1.5708E+00
			30.00		1.5688E+00
			30.50		1.5666E+00
			31.00		1.5645E+00
			31.50		1.5623E+00
			32.00		1.5601E+00
			32.50		1.5577E+00
			33.00		1.5554E+00
			33.50		1.5531E+00
			34.00		1.5507E+00
			34.50		1.5486E+00
			35.00		1.5465E+00
			35.50		1.5443E+00
			36.00		1.5422E+00
			36.50		1.5399E+00
			37.00		1.5376E+00
			37.50		1.5352E+00
			38.00		1.5329E+00
			38.50		1.5304E+00
			39.00		1.5280E+00
			39.50		1.5255E+00
			40.00		1.5230E+00
			40.50		1.5205E+00
			41.00		1.5180E+00
			41.50		1.5156E+00
			42.00		1.5132E+00
			42.50		1.5110E+00
			43.00		1.5088E+00
			43.50		1.5064E+00
			44.00		1.5041E+00
			44.50		1.5016E+00
			45.00		1.4991E+00
			45.50		1.4968E+00
			46.00		1.4945E+00
			46.50		1.4922E+00
			47.00		1.4900E+00
			47.50		1.4873E+00
			48.00		1.4846E+00
			48.50		1.4815E+00
			49.00		1.4785E+00
			49.50		1.4755E+00
			50.00		1.4724E+00
			50.50		1.4697E+00
			51.00		1.4669E+00
			51.50		1.4645E+00
			52.00		1.4621E+00
			52.50		1.4599E+00
			53.00		1.4576E+00
			53.50		1.4552E+00
			54.00		1.4528E+00
			54.50		1.4503E+00
			55.00		1.4477E+00
			55.50		1.4452E+00
			56.00		1.4426E+00
			56.50		1.4400E+00
			57.00		1.4374E+00
			57.50		1.4346E+00
			58.00		1.4318E+00
			58.50		1.4289E+00
			59.00		1.4260E+00
			59.50		1.4233E+00
			60.00		1.4206E+00
			60.50		1.4181E+00
			61.00		1.4157E+00
			61.50		1.4133E+00
			62.00		1.4110E+00
			62.50		1.4086E+00
			63.00		1.4063E+00
			63.50		1.4036E+00
			64.00		1.4009E+00
			64.50		1.3980E+00
			65.00		1.3951E+00
			65.50		1.3922E+00
			66.00		1.3893E+00
			66.50		1.3866E+00
			67.00		1.3839E+00
			67.50		1.3814E+00
			68.00		1.3788E+00
			68.50		1.3764E+00
			69.00		1.3740E+00
			69.50		1.3715E+00
			70.00		1.3691E+00
			70.50		1.3665E+00
			71.00		1.3639E+00
			71.50		1.3612E+00
			72.00		1.3586E+00
			72.50		1.3559E+00
			73.00		1.3533E+00
			73.50		1.3506E+00
			74.00		1.3479E+00
			74.50		1.3451E+00
			75.00		1.3424E+00
			75.50		1.3396E+00
			76.00		1.3368E+00
			76.50		1.3342E+00
			77.00		1.3315E+00
			77.50		1.3289E+00
			78.00		1.3263E+00
			78.50		1.3234E+00
			79.00		1.3205E+00
			79.50		1.3177E+00
			80.00		1.3149E+00
			80.50		1.3124E+00
			81.00		1.3100E+00
			81.50		1.3077E+00
			82.00		1.3055E+00
			82.50		1.3032E+00
			83.00		1.3009E+00
			83.50		1.2985E+00
			84.00		1.2961E+00
			84.50		1.2937E+00
			85.00		1.2912E+00
			85.50		1.2885E+00
			86.00		1.2858E+00
			86.50		1.2829E+00
			87.00		1.2801E+00
			87.50		1.2774E+00
			88.00		1.2747E+00
			88.50		1.2722E+00
			89.00		1.2696E+00
			89.50		1.2671E+00
			90.00		1.2645E+00
			90.50		1.2617E+00
			91.00		1.2589E+00
			91.50		1.2562E+00
			92.00		1.2534E+00
			92.50		1.2507E+00
			93.00		1.2480E+00
			93.50		1.2452E+00
			94.00		1.2424E+00
			94.50		1.2397E+00
			95.00		1.2369E+00
			95.50		1.2342E+00
			96.00		1.2315E+00
			96.50		1.2291E+00
			97.00		1.2266E+00
			97.50		1.2241E+00
			98.00		1.2217E+00
			98.50		1.2190E+00
			99.00		1.2164E+00
			99.50		1.2139E+00
			100.00		1.2113E+00
			100.50		1.2089E+00
			101.00		1.2065E+00
			101.50		1.2041E+00
			102.00		1.2018E+00
			102.50		1.1992E+00
			103.00		1.1966E+00
			103.50		1.1937E+00
			104.00		1.1908E+00
			104.50		1.1881E+00
			105.00		1.1855E+00
			105.50		1.1831E+00
			106.00		1.1806E+00
			106.50		1.1781E+00
			107.00		1.1757E+00
			107.50		1.1732E+00
			108.00		1.1707E+00
			108.50		1.1680E+00
			109.00		1.1653E+00
			109.50		1.1625E+00
			110.00		1.1597E+00
			110.50		1.1571E+00
			111.00		1.1544E+00
			111.50		1.1518E+00
			112.00		1.1493E+00
			112.50		1.1467E+00
			113.00		1.1441E+00
			113.50		1.1414E+00
			114.00		1.1388E+00
			114.50		1.1361E+00
			115.00		1.1334E+00
			115.50		1.1307E+00
			116.00		1.1279E+00
			116.50		1.1253E+00
			117.00		1.1227E+00
			117.50		1.1202E+00
			118.00		1.1177E+00
			118.50		1.1152E+00
			119.00		1.1128E+00
			119.50		1.1101E+00
			120.00		1.1074E+00
			120.50		1.1045E+00
			121.00		1.1016E+00
			121.50		1.0989E+00
			122.00		1.0961E+00
			122.50		1.0933E+00
			123.00		1.0905E+00
			123.50		1.0877E+00
			124.00		1.0849E+00
			124.50		1.0819E+00
			125.00		1.0790E+00
			125.50		1.0757E+00
			126.00		1.0724E+00
			126.50		1.0691E+00
			127.00		1.0658E+00
			127.50		1.0626E+00
			128.00		1.0594E+00
			128.50		1.0565E+00
			129.00		1.0535E+00
			129.50		1.0504E+00
			130.00		1.0473E+00
			130.50		1.0438E+00
			131.00		1.0403E+00
			131.50		1.0362E+00
			132.00		1.0322E+00
			132.50		1.0280E+00
			133.00		1.0238E+00
			133.50		1.0195E+00
			134.00		1.0152E+00
			134.50		1.0099E+00
			135.00		1.0045E+00
			135.50		998.57E-03
			136.00		992.63E-03
			136.50		985.13E-03
			137.00		977.62E-03
			137.50		966.96E-03
			138.00		956.31E-03
			138.50		939.06E-03
			139.00		921.82E-03
			139.50		891.78E-03
			140.00		861.73E-03
			140.50		814.77E-03
			141.00		767.81E-03
			141.50		707.11E-03
			142.00		646.42E-03
			142.50		579.82E-03
			143.00		513.22E-03
			143.50		450.94E-03
			144.00		388.65E-03
			144.50		338.19E-03
			145.00		287.73E-03
			145.50		252.45E-03
			146.00		217.18E-03
			146.50		197.96E-03
			147.00		178.74E-03
			147.50		167.74E-03
			148.00		156.75E-03
			148.50		149.87E-03
			149.00		142.98E-03
			149.50		138.15E-03
			150.00		133.33E-03
			150.50		129.84E-03
			151.00		126.34E-03
			151.50		123.25E-03
			152.00		120.16E-03
			152.50		117.62E-03
			153.00		115.09E-03
			153.50		112.85E-03
			154.00		110.61E-03
			154.50		108.61E-03
			155.00		106.61E-03
			155.50		105.14E-03
			156.00		103.67E-03
			156.50		102.18E-03
			157.00		100.70E-03
			157.50		99.064E-03
			158.00		97.427E-03
			158.50		95.960E-03
			159.00		94.493E-03
			159.50		93.258E-03
			160.00		92.023E-03
			160.50		90.751E-03
			161.00		89.478E-03
			161.50		88.030E-03
			162.00		86.582E-03
			162.50		85.409E-03
			163.00		84.237E-03
			163.50		83.195E-03
			164.00		82.153E-03
			164.50		81.211E-03
			165.00		80.270E-03
			165.50		79.214E-03
			166.00		78.159E-03
			166.50		77.339E-03
			167.00		76.518E-03
			167.50		75.401E-03
			168.00		74.285E-03
			168.50		73.567E-03
			169.00		72.849E-03
			169.50		71.831E-03
			170.00		70.813E-03
			170.50		69.837E-03
			171.00		68.861E-03
			171.50		68.232E-03
			172.00		67.602E-03
			172.50		66.977E-03
			173.00		66.351E-03
			173.50		65.550E-03
			174.00		64.749E-03
			174.50		63.956E-03
			175.00		63.162E-03
			175.50		62.472E-03
			176.00		61.783E-03
		END_DATA
	END_SCAN  2
	BEGIN_SCAN  3
		TASK_NAME=tba PDD Profiles
		PROGRAM=WaterTankScans
		COMMENT=PDD + 5x X
		MEAS_DATE=09-Feb-2021 16:27:13
		LINAC=TRUEBEAMSN4791
		MODALITY=X
		ISOCENTER=1000.00
		INPLANE_AXIS=Y
		CROSSPLANE_AXIS=X
		DEPTH_AXIS=Depth
		INPLANE_AXIS_DIR=TARGET_GUN
		CROSSPLANE_AXIS_DIR=LEFT_RIGHT
		DEPTH_AXIS_DIR=UP_DOWN
		ENERGY=6.00
		NOMINAL_DMAX=15.00
		SSD=900.00
		SCD=450.00
		WEDGE_ANGLE=0.00
		FIELD_INPLANE=300.00
		FIELD_CROSSPLANE=300.00
		FIELD_TYPE=RECTANGULAR
		GANTRY=0.00
		GANTRY_UPRIGHT_POSITION=0
		GANTRY_ROTATION=CW
		COLL_ANGLE=0.00
		COLL_OFFSET_INPLANE=0.00
		COLL_OFFSET_CROSSPLANE=0.00
		SCAN_DEVICE=BeamScan
		SCAN_DEVICE_SETUP=BARA_LEFT_RIGHT
		ELECTROMETER=BeamScan
		RANGE_FIELD=LOW
		RANGE_REFERENCE=MEDIUM
		DETECTOR=THIMBLE_CHAMBER
		DETECTOR_SUBCODE=SEMIFLEX
		DETECTOR_RADIUS=2.40
		DETECTOR_NAME=PTW 31021 Semiflex 3D (1)
		DETECTOR_SN=142316
		DETECTOR_CALIBRATION=588000000.00
		DETECTOR_IS_CALIBRATED=1
		DETECTOR_REFERENCE=THIMBLE_CHAMBER
		DETECTOR_REFERENCE_SUBCODE=SEMIFLEX
		DETECTOR_REFERENCE_RADIUS=2.75
		DETECTOR_REFERENCE_NAME=PTW 31010 Semiflex (1)
		DETECTOR_REFERENCE_SN=â€”
		DETECTOR_REFERENCE_IS_CALIBRATED=0
		DETECTOR_REFERENCE_CALIBRATION=303000000.00
		DETECTOR_HV=400.0
		DETECTOR_REFERENCE_HV=400.0
		DETECTOR_ORIENTATION=HORIZONTAL
		FILTER=FFF
		SCAN_SPEED_PROFILE=12.50
		SCAN_PROF_SPEED_DEP=DEPTH
		SCAN_SPEED_PDD=12.50
		SCAN_PDD_SPEED_DEP=ENERGY
		DETECTOR_TYPE=T31021
		REF_FIELD_DEPTH=100.00
		REF_FIELD_DEFINED=ISOCENTER
		REF_FIELD_INPLANE=100.00
		REF_FIELD_CROSSPLANE=100.00
		REF_SCAN_POSITIONS=-85.00;-84.00;-83.00;-82.00;-81.00;-80.00;-79.00;-78.00;-77.00;-76.00;-75.00;-74.00;-73.00;-72.00;-71.00;-70.00;-69.00;-68.00;-67.00;-66.00;-65.00;-64.00;-63.00;-62.00;-61.00;-60.00;-59.00;-58.00;-57.00;-56.00;-55.00;-54.00;-53.00;-52.00;-51.00;-50.00;-49.00;-48.00;-47.00;-46.00;-45.00;-44.00;-43.00;-42.00;-41.00;-40.00;-39.00;-38.00;-37.00;-36.00;-35.00;-34.00;-33.00;-32.00;-31.00;-30.00;-29.00;-28.00;-27.00;-26.00;-25.00;-24.00;-23.00;-22.00;-21.00;-20.00;-19.00;-18.00;-17.00;-16.00;-15.00;-14.00;-13.00;-12.00;-11.00;-10.00;-9.00;-8.00;-7.00;-6.00;-5.00;-4.00;-3.00;-2.00;-1.00;0.00;1.00;2.00;3.00;4.00;5.00;6.00;7.00;8.00;9.00;10.00;11.00;12.00;13.00;14.00;15.00;16.00;17.00;18.00;19.00;20.00;21.00;22.00;23.00;24.00;25.00;26.00;27.00;28.00;29.00;30.00;31.00;32.00;33.00;34.00;35.00;36.00;37.00;38.00;39.00;40.00;41.00;42.00;43.00;44.00;45.00;46.00;47.00;48.00;49.00;50.00;51.00;52.00;53.00;54.00;55.00;56.00;57.00;58.00;59.00;60.00;61.00;62.00;63.00;64.00;65.00;66.00;67.00;68.00;69.00;70.00;71.00;72.00;73.00;74.00;75.00;76.00;77.00;78.00;79.00;80.00;81.00;82.00;83.00;84.00;85.00;
		REF_OVERSCAN_FACTOR=1.00
		SCAN_CURVETYPE=CROSSPLANE_PROFILE
		SCAN_DEPTH=100.00
		SCAN_OFFAXIS_INPLANE=0.00
		SCAN_OFFAXIS_CROSSPLANE=0.00
		SCAN_ANGLE=0.00
		SCAN_DIAGONAL=NOT_DIAGONAL
		SCAN_DIRECTION=POSITIVE
		MEAS_MEDIUM=WATER
		MEAS_PRESET=MEAS_CONTINUOUS_REFERENCE_SCAN
		MEAS_TIME=0.080
		MEAS_UNIT=A.U.
		INCLINATION_ANGLE=0.00
		PRESSURE=1013.25
		TEMPERATURE=20.00
		NORM_TEMPERATURE=20.00
		CORRECTION_FACTOR=1.0000
		EXPECTED_MAX_DOSE_RATE=3.00
		EPOM_DEPTH_SHIFT=0.2
		EPOM_MODE=SHIFT_PROTOCOL
		CORRECTIONS=SMOOTHED_CORR;SYMMETRY_CORR;INTERPOLATED_CORR;
		BEGIN_DATA
			-185.00		71.341E-03
			-184.50		71.998E-03
			-184.00		72.655E-03
			-183.50		73.458E-03
			-183.00		74.261E-03
			-182.50		75.087E-03
			-182.00		75.913E-03
			-181.50		76.895E-03
			-181.00		77.877E-03
			-180.50		78.682E-03
			-180.00		79.488E-03
			-179.50		80.227E-03
			-179.00		80.966E-03
			-178.50		81.777E-03
			-178.00		82.589E-03
			-177.50		83.471E-03
			-177.00		84.352E-03
			-176.50		85.321E-03
			-176.00		86.289E-03
			-175.50		87.236E-03
			-175.00		88.182E-03
			-174.50		89.332E-03
			-174.00		90.482E-03
			-173.50		91.604E-03
			-173.00		92.725E-03
			-172.50		93.709E-03
			-172.00		94.692E-03
			-171.50		95.936E-03
			-171.00		97.179E-03
			-170.50		98.229E-03
			-170.00		99.279E-03
			-169.50		100.47E-03
			-169.00		101.67E-03
			-168.50		102.88E-03
			-168.00		104.09E-03
			-167.50		105.44E-03
			-167.00		106.79E-03
			-166.50		108.12E-03
			-166.00		109.44E-03
			-165.50		111.05E-03
			-165.00		112.65E-03
			-164.50		114.12E-03
			-164.00		115.60E-03
			-163.50		117.27E-03
			-163.00		118.95E-03
			-162.50		120.56E-03
			-162.00		122.18E-03
			-161.50		124.14E-03
			-161.00		126.10E-03
			-160.50		128.26E-03
			-160.00		130.41E-03
			-159.50		132.69E-03
			-159.00		134.97E-03
			-158.50		137.82E-03
			-158.00		140.68E-03
			-157.50		144.30E-03
			-157.00		147.92E-03
			-156.50		152.50E-03
			-156.00		157.09E-03
			-155.50		163.52E-03
			-155.00		169.94E-03
			-154.50		180.55E-03
			-154.00		191.15E-03
			-153.50		209.62E-03
			-153.00		228.09E-03
			-152.50		257.80E-03
			-152.00		287.50E-03
			-151.50		326.10E-03
			-151.00		364.70E-03
			-150.50		408.63E-03
			-150.00		452.57E-03
			-149.50		495.94E-03
			-149.00		539.30E-03
			-148.50		576.10E-03
			-148.00		612.91E-03
			-147.50		639.94E-03
			-147.00		666.97E-03
			-146.50		683.43E-03
			-146.00		699.89E-03
			-145.50		710.36E-03
			-145.00		720.84E-03
			-144.50		727.24E-03
			-144.00		733.64E-03
			-143.50		739.21E-03
			-143.00		744.78E-03
			-142.50		749.20E-03
			-142.00		753.63E-03
			-141.50		757.54E-03
			-141.00		761.45E-03
			-140.50		764.81E-03
			-140.00		768.18E-03
			-139.50		771.46E-03
			-139.00		774.73E-03
			-138.50		777.80E-03
			-138.00		780.88E-03
			-137.50		783.76E-03
			-137.00		786.64E-03
			-136.50		789.36E-03
			-136.00		792.08E-03
			-135.50		794.61E-03
			-135.00		797.13E-03
			-134.50		799.54E-03
			-134.00		801.95E-03
			-133.50		804.43E-03
			-133.00		806.90E-03
			-132.50		809.44E-03
			-132.00		811.98E-03
			-131.50		814.44E-03
			-131.00		816.89E-03
			-130.50		819.26E-03
			-130.00		821.63E-03
			-129.50		824.06E-03
			-129.00		826.50E-03
			-128.50		829.00E-03
			-128.00		831.50E-03
			-127.50		833.90E-03
			-127.00		836.31E-03
			-126.50		838.54E-03
			-126.00		840.76E-03
			-125.50		842.93E-03
			-125.00		845.10E-03
			-124.50		847.40E-03
			-124.00		849.71E-03
			-123.50		852.11E-03
			-123.00		854.51E-03
			-122.50		856.87E-03
			-122.00		859.22E-03
			-121.50		861.46E-03
			-121.00		863.71E-03
			-120.50		865.82E-03
			-120.00		867.93E-03
			-119.50		869.94E-03
			-119.00		871.96E-03
			-118.50		873.94E-03
			-118.00		875.92E-03
			-117.50		877.92E-03
			-117.00		879.92E-03
			-116.50		882.12E-03
			-116.00		884.31E-03
			-115.50		886.69E-03
			-115.00		889.07E-03
			-114.50		891.49E-03
			-114.00		893.91E-03
			-113.50		896.18E-03
			-113.00		898.44E-03
			-112.50		900.37E-03
			-112.00		902.30E-03
			-111.50		904.09E-03
			-111.00		905.88E-03
			-110.50		907.94E-03
			-110.00		909.99E-03
			-109.50		912.27E-03
			-109.00		914.54E-03
			-108.50		916.72E-03
			-108.00		918.90E-03
			-107.50		920.97E-03
			-107.00		923.05E-03
			-106.50		925.27E-03
			-106.00		927.50E-03
			-105.50		929.84E-03
			-105.00		932.19E-03
			-104.50		934.36E-03
			-104.00		936.53E-03
			-103.50		938.52E-03
			-103.00		940.50E-03
			-102.50		942.45E-03
			-102.00		944.39E-03
			-101.50		946.31E-03
			-101.00		948.22E-03
			-100.50		950.22E-03
			-100.00		952.22E-03
			-99.50		954.38E-03
			-99.00		956.54E-03
			-98.50		958.55E-03
			-98.00		960.57E-03
			-97.50		962.39E-03
			-97.00		964.21E-03
			-96.50		966.23E-03
			-96.00		968.24E-03
			-95.50		970.51E-03
			-95.00		972.78E-03
			-94.50		975.01E-03
			-94.00		977.23E-03
			-93.50		979.23E-03
			-93.00		981.22E-03
			-92.50		983.09E-03
			-92.00		984.96E-03
			-91.50		986.87E-03
			-91.00		988.77E-03
			-90.50		990.77E-03
			-90.00		992.77E-03
			-89.50		994.77E-03
			-89.00		996.77E-03
			-88.50		998.69E-03
			-88.00		1.0006E+00
			-87.50		1.0026E+00
			-87.00		1.0046E+00
			-86.50		1.0067E+00
			-86.00		1.0088E+00
			-85.50		1.0110E+00
			-85.00		1.0131E+00
			-84.50		1.0151E+00
			-84.00		1.0171E+00
			-83.50		1.0191E+00
			-83.00		1.0210E+00
			-82.50		1.0229E+00
			-82.00		1.0248E+00
			-81.50		1.0267E+00
			-81.00		1.0286E+00
			-80.50		1.0306E+00
			-80.00		1.0326E+00
			-79.50		1.0348E+00
			-79.00		1.0370E+00
			-78.50		1.0391E+00
			-78.00		1.0412E+00
			-77.50		1.0433E+00
			-77.00		1.0453E+00
			-76.50		1.0472E+00
			-76.00		1.0491E+00
			-75.50		1.0509E+00
			-75.00		1.0526E+00
			-74.50		1.0546E+00
			-74.00		1.0566E+00
			-73.50		1.0587E+00
			-73.00		1.0608E+00
			-72.50		1.0628E+00
			-72.00		1.0649E+00
			-71.50		1.0668E+00
			-71.00		1.0686E+00
			-70.50		1.0705E+00
			-70.00		1.0724E+00
			-69.50		1.0745E+00
			-69.00		1.0766E+00
			-68.50		1.0787E+00
			-68.00		1.0809E+00
			-67.50		1.0827E+00
			-67.00		1.0845E+00
			-66.50		1.0863E+00
			-66.00		1.0881E+00
			-65.50		1.0898E+00
			-65.00		1.0915E+00
			-64.50		1.0933E+00
			-64.00		1.0951E+00
			-63.50		1.0971E+00
			-63.00		1.0991E+00
			-62.50		1.1012E+00
			-62.00		1.1033E+00
			-61.50		1.1054E+00
			-61.00		1.1076E+00
			-60.50		1.1097E+00
			-60.00		1.1118E+00
			-59.50		1.1137E+00
			-59.00		1.1156E+00
			-58.50		1.1176E+00
			-58.00		1.1196E+00
			-57.50		1.1216E+00
			-57.00		1.1235E+00
			-56.50		1.1253E+00
			-56.00		1.1272E+00
			-55.50		1.1289E+00
			-55.00		1.1307E+00
			-54.50		1.1325E+00
			-54.00		1.1343E+00
			-53.50		1.1360E+00
			-53.00		1.1377E+00
			-52.50		1.1394E+00
			-52.00		1.1411E+00
			-51.50		1.1430E+00
			-51.00		1.1449E+00
			-50.50		1.1468E+00
			-50.00		1.1488E+00
			-49.50		1.1507E+00
			-49.00		1.1527E+00
			-48.50		1.1547E+00
			-48.00		1.1567E+00
			-47.50		1.1586E+00
			-47.00		1.1605E+00
			-46.50		1.1623E+00
			-46.00		1.1641E+00
			-45.50		1.1659E+00
			-45.00		1.1677E+00
			-44.50		1.1694E+00
			-44.00		1.1711E+00
			-43.50		1.1725E+00
			-43.00		1.1740E+00
			-42.50		1.1757E+00
			-42.00		1.1774E+00
			-41.50		1.1794E+00
			-41.00		1.1813E+00
			-40.50		1.1832E+00
			-40.00		1.1851E+00
			-39.50		1.1868E+00
			-39.00		1.1886E+00
			-38.50		1.1904E+00
			-38.00		1.1921E+00
			-37.50		1.1938E+00
			-37.00		1.1955E+00
			-36.50		1.1974E+00
			-36.00		1.1992E+00
			-35.50		1.2010E+00
			-35.00		1.2027E+00
			-34.50		1.2041E+00
			-34.00		1.2056E+00
			-33.50		1.2070E+00
			-33.00		1.2084E+00
			-32.50		1.2099E+00
			-32.00		1.2114E+00
			-31.50		1.2129E+00
			-31.00		1.2143E+00
			-30.50		1.2157E+00
			-30.00		1.2172E+00
			-29.50		1.2186E+00
			-29.00		1.2200E+00
			-28.50		1.2213E+00
			-28.00		1.2226E+00
			-27.50		1.2239E+00
			-27.00		1.2251E+00
			-26.50		1.2264E+00
			-26.00		1.2276E+00
			-25.50		1.2290E+00
			-25.00		1.2304E+00
			-24.50		1.2318E+00
			-24.00		1.2332E+00
			-23.50		1.2345E+00
			-23.00		1.2358E+00
			-22.50		1.2371E+00
			-22.00		1.2383E+00
			-21.50		1.2394E+00
			-21.00		1.2406E+00
			-20.50		1.2419E+00
			-20.00		1.2432E+00
			-19.50		1.2443E+00
			-19.00		1.2455E+00
			-18.50		1.2464E+00
			-18.00		1.2472E+00
			-17.50		1.2480E+00
			-17.00		1.2487E+00
			-16.50		1.2497E+00
			-16.00		1.2506E+00
			-15.50		1.2516E+00
			-15.00		1.2527E+00
			-14.50		1.2536E+00
			-14.00		1.2544E+00
			-13.50		1.2550E+00
			-13.00		1.2555E+00
			-12.50		1.2559E+00
			-12.00		1.2564E+00
			-11.50		1.2567E+00
			-11.00		1.2571E+00
			-10.50		1.2578E+00
			-10.00		1.2584E+00
			-9.50		1.2592E+00
			-9.00		1.2601E+00
			-8.50		1.2610E+00
			-8.00		1.2618E+00
			-7.50		1.2622E+00
			-7.00		1.2627E+00
			-6.50		1.2629E+00
			-6.00		1.2631E+00
			-5.50		1.2632E+00
			-5.00		1.2634E+00
			-4.50		1.2636E+00
			-4.00		1.2638E+00
			-3.50		1.2642E+00
			-3.00		1.2645E+00
			-2.50		1.2648E+00
			-2.00		1.2651E+00
			-1.50		1.2651E+00
			-1.00		1.2651E+00
			-0.50		1.2650E+00
			0.00		1.2649E+00
			0.50		1.2650E+00
			1.00		1.2651E+00
			1.50		1.2651E+00
			2.00		1.2651E+00
			2.50		1.2648E+00
			3.00		1.2645E+00
			3.50		1.2642E+00
			4.00		1.2638E+00
			4.50		1.2636E+00
			5.00		1.2634E+00
			5.50		1.2632E+00
			6.00		1.2631E+00
			6.50		1.2629E+00
			7.00		1.2627E+00
			7.50		1.2622E+00
			8.00		1.2618E+00
			8.50		1.2610E+00
			9.00		1.2601E+00
			9.50		1.2592E+00
			10.00		1.2584E+00
			10.50		1.2578E+00
			11.00		1.2571E+00
			11.50		1.2567E+00
			12.00		1.2564E+00
			12.50		1.2559E+00
			13.00		1.2555E+00
			13.50		1.2550E+00
			14.00		1.2544E+00
			14.50		1.2536E+00
			15.00		1.2527E+00
			15.50		1.2516E+00
			16.00		1.2506E+00
			16.50		1.2497E+00
			17.00		1.2487E+00
			17.50		1.2480E+00
			18.00		1.2472E+00
			18.50		1.2464E+00
			19.00		1.2455E+00
			19.50		1.2443E+00
			20.00		1.2432E+00
			20.50		1.2419E+00
			21.00		1.2406E+00
			21.50		1.2394E+00
			22.00		1.2383E+00
			22.50		1.2371E+00
			23.00		1.2358E+00
			23.50		1.2345E+00
			24.00		1.2332E+00
			24.50		1.2318E+00
			25.00		1.2304E+00
			25.50		1.2290E+00
			26.00		1.2276E+00
			26.50		1.2264E+00
			27.00		1.2251E+00
			27.50		1.2239E+00
			28.00		1.2226E+00
			28.50		1.2213E+00
			29.00		1.2200E+00
			29.50		1.2186E+00
			30.00		1.2172E+00
			30.50		1.2157E+00
			31.00		1.2143E+00
			31.50		1.2129E+00
			32.00		1.2114E+00
			32.50		1.2099E+00
			33.00		1.2084E+00
			33.50		1.2070E+00
			34.00		1.2056E+00
			34.50		1.2041E+00
			35.00		1.2027E+00
			35.50		1.2010E+00
			36.00		1.1992E+00
			36.50		1.1974E+00
			37.00		1.1955E+00
			37.50		1.1938E+00
			38.00		1.1921E+00
			38.50		1.1904E+00
			39.00		1.1886E+00
			39.50		1.1868E+00
			40.00		1.1851E+00
			40.50		1.1832E+00
			41.00		1.1813E+00
			41.50		1.1794E+00
			42.00		1.1774E+00
			42.50		1.1757E+00
			43.00		1.1740E+00
			43.50		1.1725E+00
			44.00		1.1711E+00
			44.50		1.1694E+00
			45.00		1.1677E+00
			45.50		1.1659E+00
			46.00		1.1641E+00
			46.50		1.1623E+00
			47.00		1.1605E+00
			47.50		1.1586E+00
			48.00		1.1567E+00
			48.50		1.1547E+00
			49.00		1.1527E+00
			49.50		1.1507E+00
			50.00		1.1488E+00
			50.50		1.1468E+00
			51.00		1.1449E+00
			51.50		1.1430E+00
			52.00		1.1411E+00
			52.50		1.1394E+00
			53.00		1.1377E+00
			53.50		1.1360E+00
			54.00		1.1343E+00
			54.50		1.1325E+00
			55.00		1.1307E+00
			55.50		1.1289E+00
			56.00		1.1272E+00
			56.50		1.1253E+00
			57.00		1.1235E+00
			57.50		1.1216E+00
			58.00		1.1196E+00
			58.50		1.1176E+00
			59.00		1.1156E+00
			59.50		1.1137E+00
			60.00		1.1118E+00
			60.50		1.1097E+00
			61.00		1.1076E+00
			61.50		1.1054E+00
			62.00		1.1033E+00
			62.50		1.1012E+00
			63.00		1.0991E+00
			63.50		1.0971E+00
			64.00		1.0951E+00
			64.50		1.0933E+00
			65.00		1.0915E+00
			65.50		1.0898E+00
			66.00		1.0881E+00
			66.50		1.0863E+00
			67.00		1.0845E+00
			67.50		1.0827E+00
			68.00		1.0809E+00
			68.50		1.0787E+00
			69.00		1.0766E+00
			69.50		1.0745E+00
			70.00		1.0724E+00
			70.50		1.0705E+00
			71.00		1.0686E+00
			71.50		1.0668E+00
			72.00		1.0649E+00
			72.50		1.0628E+00
			73.00		1.0608E+00
			73.50		1.0587E+00
			74.00		1.0566E+00
			74.50		1.0546E+00
			75.00		1.0526E+00
			75.50		1.0509E+00
			76.00		1.0491E+00
			76.50		1.0472E+00
			77.00		1.0453E+00
			77.50		1.0433E+00
			78.00		1.0412E+00
			78.50		1.0391E+00
			79.00		1.0370E+00
			79.50		1.0348E+00
			80.00		1.0326E+00
			80.50		1.0306E+00
			81.00		1.0286E+00
			81.50		1.0267E+00
			82.00		1.0248E+00
			82.50		1.0229E+00
			83.00		1.0210E+00
			83.50		1.0191E+00
			84.00		1.0171E+00
			84.50		1.0151E+00
			85.00		1.0131E+00
			85.50		1.0110E+00
			86.00		1.0088E+00
			86.50		1.0067E+00
			87.00		1.0046E+00
			87.50		1.0026E+00
			88.00		1.0006E+00
			88.50		998.69E-03
			89.00		996.77E-03
			89.50		994.77E-03
			90.00		992.77E-03
			90.50		990.77E-03
			91.00		988.77E-03
			91.50		986.87E-03
			92.00		984.96E-03
			92.50		983.09E-03
			93.00		981.22E-03
			93.50		979.23E-03
			94.00		977.23E-03
			94.50		975.01E-03
			95.00		972.78E-03
			95.50		970.51E-03
			96.00		968.24E-03
			96.50		966.23E-03
			97.00		964.21E-03
			97.50		962.39E-03
			98.00		960.57E-03
			98.50		958.55E-03
			99.00		956.54E-03
			99.50		954.38E-03
			100.00		952.22E-03
			100.50		950.22E-03
			101.00		948.22E-03
			101.50		946.31E-03
			102.00		944.39E-03
			102.50		942.45E-03
			103.00		940.50E-03
			103.50		938.52E-03
			104.00		936.53E-03
			104.50		934.36E-03
			105.00		932.19E-03
			105.50		929.84E-03
			106.00		927.50E-03
			106.50		925.27E-03
			107.00		923.05E-03
			107.50		920.97E-03
			108.00		918.90E-03
			108.50		916.72E-03
			109.00		914.54E-03
			109.50		912.27E-03
			110.00		909.99E-03
			110.50		907.94E-03
			111.00		905.88E-03
			111.50		904.09E-03
			112.00		902.30E-03
			112.50		900.37E-03
			113.00		898.44E-03
			113.50		896.18E-03
			114.00		893.91E-03
			114.50		891.49E-03
			115.00		889.07E-03
			115.50		886.69E-03
			116.00		884.31E-03
			116.50		882.12E-03
			117.00		879.92E-03
			117.50		877.92E-03
			118.00		875.92E-03
			118.50		873.94E-03
			119.00		871.96E-03
			119.50		869.94E-03
			120.00		867.93E-03
			120.50		865.82E-03
			121.00		863.71E-03
			121.50		861.46E-03
			122.00		859.22E-03
			122.50		856.87E-03
			123.00		854.51E-03
			123.50		852.11E-03
			124.00		849.71E-03
			124.50		847.40E-03
			125.00		845.10E-03
			125.50		842.93E-03
			126.00		840.76E-03
			126.50		838.54E-03
			127.00		836.31E-03
			127.50		833.90E-03
			128.00		831.50E-03
			128.50		829.00E-03
			129.00		826.50E-03
			129.50		824.06E-03
			130.00		821.63E-03
			130.50		819.26E-03
			131.00		816.89E-03
			131.50		814.44E-03
			132.00		811.98E-03
			132.50		809.44E-03
			133.00		806.90E-03
			133.50		804.43E-03
			134.00		801.95E-03
			134.50		799.54E-03
			135.00		797.13E-03
			135.50		794.61E-03
			136.00		792.08E-03
			136.50		789.36E-03
			137.00		786.64E-03
			137.50		783.76E-03
			138.00		780.88E-03
			138.50		777.80E-03
			139.00		774.73E-03
			139.50		771.46E-03
			140.00		768.18E-03
			140.50		764.81E-03
			141.00		761.45E-03
			141.50		757.54E-03
			142.00		753.63E-03
			142.50		749.20E-03
			143.00		744.78E-03
			143.50		739.21E-03
			144.00		733.64E-03
			144.50		727.24E-03
			145.00		720.84E-03
			145.50		710.36E-03
			146.00		699.89E-03
			146.50		683.43E-03
			147.00		666.97E-03
			147.50		639.94E-03
			148.00		612.91E-03
			148.50		576.10E-03
			149.00		539.30E-03
			149.50		495.94E-03
			150.00		452.57E-03
			150.50		408.63E-03
			151.00		364.70E-03
			151.50		326.10E-03
			152.00		287.50E-03
			152.50		257.80E-03
			153.00		228.09E-03
			153.50		209.62E-03
			154.00		191.15E-03
			154.50		180.55E-03
			155.00		169.94E-03
			155.50		163.52E-03
			156.00		157.09E-03
			156.50		152.50E-03
			157.00		147.92E-03
			157.50		144.30E-03
			158.00		140.68E-03
			158.50		137.82E-03
			159.00		134.97E-03
			159.50		132.69E-03
			160.00		130.41E-03
			160.50		128.26E-03
			161.00		126.10E-03
			161.50		124.14E-03
			162.00		122.18E-03
			162.50		120.56E-03
			163.00		118.95E-03
			163.50		117.27E-03
			164.00		115.60E-03
			164.50		114.12E-03
			165.00		112.65E-03
			165.50		111.05E-03
			166.00		109.44E-03
			166.50		108.12E-03
			167.00		106.79E-03
			167.50		105.44E-03
			168.00		104.09E-03
			168.50		102.88E-03
			169.00		101.67E-03
			169.50		100.47E-03
			170.00		99.279E-03
			170.50		98.229E-03
			171.00		97.179E-03
			171.50		95.936E-03
			172.00		94.692E-03
			172.50		93.709E-03
			173.00		92.725E-03
			173.50		91.604E-03
			174.00		90.482E-03
			174.50		89.332E-03
			175.00		88.182E-03
			175.50		87.236E-03
			176.00		86.289E-03
			176.50		85.321E-03
			177.00		84.352E-03
			177.50		83.471E-03
			178.00		82.589E-03
			178.50		81.777E-03
			179.00		80.966E-03
			179.50		80.227E-03
			180.00		79.488E-03
			180.50		78.682E-03
			181.00		77.877E-03
			181.50		76.895E-03
			182.00		75.913E-03
			182.50		75.087E-03
			183.00		74.261E-03
			183.50		73.458E-03
			184.00		72.655E-03
			184.50		71.998E-03
			185.00		71.341E-03
		END_DATA
	END_SCAN  3
	BEGIN_SCAN  4
		TASK_NAME=tba PDD Profiles
		PROGRAM=WaterTankScans
		COMMENT=PDD + 5x X
		MEAS_DATE=09-Feb-2021 16:27:46
		LINAC=TRUEBEAMSN4791
		MODALITY=X
		ISOCENTER=1000.00
		INPLANE_AXIS=Y
		CROSSPLANE_AXIS=X
		DEPTH_AXIS=Depth
		INPLANE_AXIS_DIR=TARGET_GUN
		CROSSPLANE_AXIS_DIR=LEFT_RIGHT
		DEPTH_AXIS_DIR=UP_DOWN
		ENERGY=6.00
		NOMINAL_DMAX=15.00
		SSD=900.00
		SCD=450.00
		WEDGE_ANGLE=0.00
		FIELD_INPLANE=300.00
		FIELD_CROSSPLANE=300.00
		FIELD_TYPE=RECTANGULAR
		GANTRY=0.00
		GANTRY_UPRIGHT_POSITION=0
		GANTRY_ROTATION=CW
		COLL_ANGLE=0.00
		COLL_OFFSET_INPLANE=0.00
		COLL_OFFSET_CROSSPLANE=0.00
		SCAN_DEVICE=BeamScan
		SCAN_DEVICE_SETUP=BARA_LEFT_RIGHT
		ELECTROMETER=BeamScan
		RANGE_FIELD=LOW
		RANGE_REFERENCE=MEDIUM
		DETECTOR=THIMBLE_CHAMBER
		DETECTOR_SUBCODE=SEMIFLEX
		DETECTOR_RADIUS=2.40
		DETECTOR_NAME=PTW 31021 Semiflex 3D (1)
		DETECTOR_SN=142316
		DETECTOR_CALIBRATION=588000000.00
		DETECTOR_IS_CALIBRATED=1
		DETECTOR_REFERENCE=THIMBLE_CHAMBER
		DETECTOR_REFERENCE_SUBCODE=SEMIFLEX
		DETECTOR_REFERENCE_RADIUS=2.75
		DETECTOR_REFERENCE_NAME=PTW 31010 Semiflex (1)
		DETECTOR_REFERENCE_SN=â€”
		DETECTOR_REFERENCE_IS_CALIBRATED=0
		DETECTOR_REFERENCE_CALIBRATION=303000000.00
		DETECTOR_HV=400.0
		DETECTOR_REFERENCE_HV=400.0
		DETECTOR_ORIENTATION=HORIZONTAL
		FILTER=FFF
		SCAN_SPEED_PROFILE=12.50
		SCAN_PROF_SPEED_DEP=DEPTH
		SCAN_SPEED_PDD=12.50
		SCAN_PDD_SPEED_DEP=ENERGY
		DETECTOR_TYPE=T31021
		REF_FIELD_DEPTH=100.00
		REF_FIELD_DEFINED=ISOCENTER
		REF_FIELD_INPLANE=100.00
		REF_FIELD_CROSSPLANE=100.00
		REF_SCAN_POSITIONS=-85.00;-84.00;-83.00;-82.00;-81.00;-80.00;-79.00;-78.00;-77.00;-76.00;-75.00;-74.00;-73.00;-72.00;-71.00;-70.00;-69.00;-68.00;-67.00;-66.00;-65.00;-64.00;-63.00;-62.00;-61.00;-60.00;-59.00;-58.00;-57.00;-56.00;-55.00;-54.00;-53.00;-52.00;-51.00;-50.00;-49.00;-48.00;-47.00;-46.00;-45.00;-44.00;-43.00;-42.00;-41.00;-40.00;-39.00;-38.00;-37.00;-36.00;-35.00;-34.00;-33.00;-32.00;-31.00;-30.00;-29.00;-28.00;-27.00;-26.00;-25.00;-24.00;-23.00;-22.00;-21.00;-20.00;-19.00;-18.00;-17.00;-16.00;-15.00;-14.00;-13.00;-12.00;-11.00;-10.00;-9.00;-8.00;-7.00;-6.00;-5.00;-4.00;-3.00;-2.00;-1.00;0.00;1.00;2.00;3.00;4.00;5.00;6.00;7.00;8.00;9.00;10.00;11.00;12.00;13.00;14.00;15.00;16.00;17.00;18.00;19.00;20.00;21.00;22.00;23.00;24.00;25.00;26.00;27.00;28.00;29.00;30.00;31.00;32.00;33.00;34.00;35.00;36.00;37.00;38.00;39.00;40.00;41.00;42.00;43.00;44.00;45.00;46.00;47.00;48.00;49.00;50.00;51.00;52.00;53.00;54.00;55.00;56.00;57.00;58.00;59.00;60.00;61.00;62.00;63.00;64.00;65.00;66.00;67.00;68.00;69.00;70.00;71.00;72.00;73.00;74.00;75.00;76.00;77.00;78.00;79.00;80.00;81.00;82.00;83.00;84.00;85.00;
		REF_OVERSCAN_FACTOR=1.00
		SCAN_CURVETYPE=CROSSPLANE_PROFILE
		SCAN_DEPTH=200.00
		SCAN_OFFAXIS_INPLANE=0.00
		SCAN_OFFAXIS_CROSSPLANE=0.00
		SCAN_ANGLE=0.00
		SCAN_DIAGONAL=NOT_DIAGONAL
		SCAN_DIRECTION=NEGATIVE
		MEAS_MEDIUM=WATER
		MEAS_PRESET=MEAS_CONTINUOUS_REFERENCE_SCAN
		MEAS_TIME=0.080
		MEAS_UNIT=A.U.
		INCLINATION_ANGLE=0.00
		PRESSURE=1013.25
		TEMPERATURE=20.00
		NORM_TEMPERATURE=20.00
		CORRECTION_FACTOR=1.0000
		EXPECTED_MAX_DOSE_RATE=3.00
		EPOM_DEPTH_SHIFT=0.2
		EPOM_MODE=SHIFT_PROTOCOL
		CORRECTIONS=SMOOTHED_CORR;SYMMETRY_CORR;INTERPOLATED_CORR;
		BEGIN_DATA
			-204.00		60.945E-03
			-203.50		61.594E-03
			-203.00		62.243E-03
			-202.50		62.799E-03
			-202.00		63.354E-03
			-201.50		63.876E-03
			-201.00		64.398E-03
			-200.50		64.865E-03
			-200.00		65.332E-03
			-199.50		65.914E-03
			-199.00		66.496E-03
			-198.50		67.265E-03
			-198.00		68.035E-03
			-197.50		68.439E-03
			-197.00		68.842E-03
			-196.50		69.331E-03
			-196.00		69.821E-03
			-195.50		70.740E-03
			-195.00		71.658E-03
			-194.50		72.329E-03
			-194.00		73.001E-03
			-193.50		73.573E-03
			-193.00		74.145E-03
			-192.50		74.850E-03
			-192.00		75.554E-03
			-191.50		76.283E-03
			-191.00		77.011E-03
			-190.50		77.528E-03
			-190.00		78.045E-03
			-189.50		78.903E-03
			-189.00		79.761E-03
			-188.50		80.440E-03
			-188.00		81.119E-03
			-187.50		81.910E-03
			-187.00		82.700E-03
			-186.50		83.561E-03
			-186.00		84.423E-03
			-185.50		85.111E-03
			-185.00		85.798E-03
			-184.50		86.631E-03
			-184.00		87.464E-03
			-183.50		88.537E-03
			-183.00		89.611E-03
			-182.50		90.354E-03
			-182.00		91.097E-03
			-181.50		91.904E-03
			-181.00		92.711E-03
			-180.50		93.604E-03
			-180.00		94.497E-03
			-179.50		95.773E-03
			-179.00		97.048E-03
			-178.50		98.088E-03
			-178.00		99.128E-03
			-177.50		100.02E-03
			-177.00		100.91E-03
			-176.50		102.16E-03
			-176.00		103.41E-03
			-175.50		104.56E-03
			-175.00		105.72E-03
			-174.50		106.98E-03
			-174.00		108.24E-03
			-173.50		109.83E-03
			-173.00		111.42E-03
			-172.50		113.75E-03
			-172.00		116.07E-03
			-171.50		118.49E-03
			-171.00		120.90E-03
			-170.50		124.87E-03
			-170.00		128.85E-03
			-169.50		134.64E-03
			-169.00		140.42E-03
			-168.50		149.79E-03
			-168.00		159.15E-03
			-167.50		173.09E-03
			-167.00		187.03E-03
			-166.50		205.18E-03
			-166.00		223.32E-03
			-165.50		243.51E-03
			-165.00		263.70E-03
			-164.50		284.52E-03
			-164.00		305.34E-03
			-163.50		323.02E-03
			-163.00		340.71E-03
			-162.50		353.94E-03
			-162.00		367.17E-03
			-161.50		375.94E-03
			-161.00		384.70E-03
			-160.50		390.11E-03
			-160.00		395.51E-03
			-159.50		399.83E-03
			-159.00		404.16E-03
			-158.50		407.23E-03
			-158.00		410.30E-03
			-157.50		413.00E-03
			-157.00		415.70E-03
			-156.50		417.70E-03
			-156.00		419.71E-03
			-155.50		421.58E-03
			-155.00		423.45E-03
			-154.50		425.62E-03
			-154.00		427.80E-03
			-153.50		429.32E-03
			-153.00		430.84E-03
			-152.50		432.53E-03
			-152.00		434.23E-03
			-151.50		436.00E-03
			-151.00		437.78E-03
			-150.50		439.47E-03
			-150.00		441.17E-03
			-149.50		442.69E-03
			-149.00		444.20E-03
			-148.50		445.59E-03
			-148.00		446.98E-03
			-147.50		448.33E-03
			-147.00		449.68E-03
			-146.50		451.07E-03
			-146.00		452.46E-03
			-145.50		453.88E-03
			-145.00		455.31E-03
			-144.50		456.78E-03
			-144.00		458.24E-03
			-143.50		459.67E-03
			-143.00		461.10E-03
			-142.50		462.42E-03
			-142.00		463.73E-03
			-141.50		465.03E-03
			-141.00		466.33E-03
			-140.50		467.73E-03
			-140.00		469.13E-03
			-139.50		470.53E-03
			-139.00		471.93E-03
			-138.50		473.25E-03
			-138.00		474.57E-03
			-137.50		475.86E-03
			-137.00		477.15E-03
			-136.50		478.45E-03
			-136.00		479.75E-03
			-135.50		481.11E-03
			-135.00		482.47E-03
			-134.50		483.85E-03
			-134.00		485.23E-03
			-133.50		486.50E-03
			-133.00		487.77E-03
			-132.50		488.92E-03
			-132.00		490.08E-03
			-131.50		491.28E-03
			-131.00		492.49E-03
			-130.50		493.90E-03
			-130.00		495.31E-03
			-129.50		496.77E-03
			-129.00		498.23E-03
			-128.50		499.51E-03
			-128.00		500.79E-03
			-127.50		501.94E-03
			-127.00		503.08E-03
			-126.50		504.27E-03
			-126.00		505.47E-03
			-125.50		506.71E-03
			-125.00		507.96E-03
			-124.50		509.18E-03
			-124.00		510.40E-03
			-123.50		511.54E-03
			-123.00		512.68E-03
			-122.50		513.80E-03
			-122.00		514.91E-03
			-121.50		516.13E-03
			-121.00		517.35E-03
			-120.50		518.63E-03
			-120.00		519.90E-03
			-119.50		521.13E-03
			-119.00		522.35E-03
			-118.50		523.55E-03
			-118.00		524.74E-03
			-117.50		526.03E-03
			-117.00		527.32E-03
			-116.50		528.68E-03
			-116.00		530.04E-03
			-115.50		531.36E-03
			-115.00		532.68E-03
			-114.50		533.92E-03
			-114.00		535.16E-03
			-113.50		536.31E-03
			-113.00		537.46E-03
			-112.50		538.47E-03
			-112.00		539.48E-03
			-111.50		540.41E-03
			-111.00		541.34E-03
			-110.50		542.34E-03
			-110.00		543.33E-03
			-109.50		544.49E-03
			-109.00		545.66E-03
			-108.50		546.94E-03
			-108.00		548.22E-03
			-107.50		549.44E-03
			-107.00		550.66E-03
			-106.50		551.74E-03
			-106.00		552.83E-03
			-105.50		553.88E-03
			-105.00		554.94E-03
			-104.50		556.07E-03
			-104.00		557.20E-03
			-103.50		558.43E-03
			-103.00		559.65E-03
			-102.50		560.87E-03
			-102.00		562.08E-03
			-101.50		563.25E-03
			-101.00		564.42E-03
			-100.50		565.61E-03
			-100.00		566.81E-03
			-99.50		568.02E-03
			-99.00		569.24E-03
			-98.50		570.44E-03
			-98.00		571.64E-03
			-97.50		572.75E-03
			-97.00		573.86E-03
			-96.50		574.92E-03
			-96.00		575.98E-03
			-95.50		577.11E-03
			-95.00		578.25E-03
			-94.50		579.41E-03
			-94.00		580.56E-03
			-93.50		581.60E-03
			-93.00		582.64E-03
			-92.50		583.60E-03
			-92.00		584.56E-03
			-91.50		585.61E-03
			-91.00		586.67E-03
			-90.50		587.94E-03
			-90.00		589.22E-03
			-89.50		590.58E-03
			-89.00		591.95E-03
			-88.50		593.17E-03
			-88.00		594.39E-03
			-87.50		595.42E-03
			-87.00		596.45E-03
			-86.50		597.41E-03
			-86.00		598.38E-03
			-85.50		599.46E-03
			-85.00		600.54E-03
			-84.50		601.75E-03
			-84.00		602.95E-03
			-83.50		604.08E-03
			-83.00		605.22E-03
			-82.50		606.30E-03
			-82.00		607.38E-03
			-81.50		608.52E-03
			-81.00		609.65E-03
			-80.50		610.68E-03
			-80.00		611.72E-03
			-79.50		612.59E-03
			-79.00		613.46E-03
			-78.50		614.37E-03
			-78.00		615.29E-03
			-77.50		616.38E-03
			-77.00		617.47E-03
			-76.50		618.69E-03
			-76.00		619.91E-03
			-75.50		621.11E-03
			-75.00		622.31E-03
			-74.50		623.40E-03
			-74.00		624.49E-03
			-73.50		625.51E-03
			-73.00		626.53E-03
			-72.50		627.54E-03
			-72.00		628.55E-03
			-71.50		629.54E-03
			-71.00		630.54E-03
			-70.50		631.56E-03
			-70.00		632.57E-03
			-69.50		633.64E-03
			-69.00		634.70E-03
			-68.50		635.82E-03
			-68.00		636.93E-03
			-67.50		638.03E-03
			-67.00		639.14E-03
			-66.50		640.28E-03
			-66.00		641.41E-03
			-65.50		642.58E-03
			-65.00		643.75E-03
			-64.50		644.81E-03
			-64.00		645.88E-03
			-63.50		646.79E-03
			-63.00		647.69E-03
			-62.50		648.52E-03
			-62.00		649.35E-03
			-61.50		650.24E-03
			-61.00		651.14E-03
			-60.50		652.19E-03
			-60.00		653.24E-03
			-59.50		654.39E-03
			-59.00		655.55E-03
			-58.50		656.63E-03
			-58.00		657.71E-03
			-57.50		658.66E-03
			-57.00		659.60E-03
			-56.50		660.49E-03
			-56.00		661.37E-03
			-55.50		662.27E-03
			-55.00		663.16E-03
			-54.50		664.09E-03
			-54.00		665.01E-03
			-53.50		666.01E-03
			-53.00		667.01E-03
			-52.50		668.07E-03
			-52.00		669.14E-03
			-51.50		670.20E-03
			-51.00		671.27E-03
			-50.50		672.24E-03
			-50.00		673.20E-03
			-49.50		674.08E-03
			-49.00		674.95E-03
			-48.50		675.79E-03
			-48.00		676.64E-03
			-47.50		677.52E-03
			-47.00		678.39E-03
			-46.50		679.40E-03
			-46.00		680.42E-03
			-45.50		681.43E-03
			-45.00		682.44E-03
			-44.50		683.23E-03
			-44.00		684.02E-03
			-43.50		684.66E-03
			-43.00		685.30E-03
			-42.50		686.02E-03
			-42.00		686.74E-03
			-41.50		687.61E-03
			-41.00		688.48E-03
			-40.50		689.42E-03
			-40.00		690.37E-03
			-39.50		691.33E-03
			-39.00		692.29E-03
			-38.50		693.24E-03
			-38.00		694.20E-03
			-37.50		695.04E-03
			-37.00		695.88E-03
			-36.50		696.61E-03
			-36.00		697.34E-03
			-35.50		698.11E-03
			-35.00		698.88E-03
			-34.50		699.67E-03
			-34.00		700.47E-03
			-33.50		701.15E-03
			-33.00		701.84E-03
			-32.50		702.50E-03
			-32.00		703.16E-03
			-31.50		703.97E-03
			-31.00		704.78E-03
			-30.50		705.66E-03
			-30.00		706.54E-03
			-29.50		707.27E-03
			-29.00		708.00E-03
			-28.50		708.56E-03
			-28.00		709.12E-03
			-27.50		709.68E-03
			-27.00		710.24E-03
			-26.50		710.88E-03
			-26.00		711.52E-03
			-25.50		712.19E-03
			-25.00		712.86E-03
			-24.50		713.51E-03
			-24.00		714.17E-03
			-23.50		714.82E-03
			-23.00		715.46E-03
			-22.50		715.97E-03
			-22.00		716.49E-03
			-21.50		716.84E-03
			-21.00		717.19E-03
			-20.50		717.58E-03
			-20.00		717.96E-03
			-19.50		718.47E-03
			-19.00		718.99E-03
			-18.50		719.48E-03
			-18.00		719.96E-03
			-17.50		720.39E-03
			-17.00		720.82E-03
			-16.50		721.23E-03
			-16.00		721.63E-03
			-15.50		722.06E-03
			-15.00		722.49E-03
			-14.50		722.97E-03
			-14.00		723.44E-03
			-13.50		723.89E-03
			-13.00		724.35E-03
			-12.50		724.74E-03
			-12.00		725.14E-03
			-11.50		725.49E-03
			-11.00		725.84E-03
			-10.50		726.19E-03
			-10.00		726.55E-03
			-9.50		726.94E-03
			-9.00		727.34E-03
			-8.50		727.61E-03
			-8.00		727.89E-03
			-7.50		727.87E-03
			-7.00		727.86E-03
			-6.50		727.77E-03
			-6.00		727.68E-03
			-5.50		727.74E-03
			-5.00		727.79E-03
			-4.50		727.89E-03
			-4.00		727.98E-03
			-3.50		728.12E-03
			-3.00		728.25E-03
			-2.50		728.47E-03
			-2.00		728.70E-03
			-1.50		728.82E-03
			-1.00		728.95E-03
			-0.50		728.95E-03
			0.00		728.94E-03
			0.50		728.95E-03
			1.00		728.95E-03
			1.50		728.82E-03
			2.00		728.70E-03
			2.50		728.47E-03
			3.00		728.25E-03
			3.50		728.12E-03
			4.00		727.98E-03
			4.50		727.89E-03
			5.00		727.79E-03
			5.50		727.74E-03
			6.00		727.68E-03
			6.50		727.77E-03
			7.00		727.86E-03
			7.50		727.87E-03
			8.00		727.89E-03
			8.50		727.61E-03
			9.00		727.34E-03
			9.50		726.94E-03
			10.00		726.55E-03
			10.50		726.19E-03
			11.00		725.84E-03
			11.50		725.49E-03
			12.00		725.14E-03
			12.50		724.74E-03
			13.00		724.35E-03
			13.50		723.89E-03
			14.00		723.44E-03
			14.50		722.97E-03
			15.00		722.49E-03
			15.50		722.06E-03
			16.00		721.63E-03
			16.50		721.23E-03
			17.00		720.82E-03
			17.50		720.39E-03
			18.00		719.96E-03
			18.50		719.48E-03
			19.00		718.99E-03
			19.50		718.47E-03
			20.00		717.96E-03
			20.50		717.58E-03
			21.00		717.19E-03
			21.50		716.84E-03
			22.00		716.49E-03
			22.50		715.97E-03
			23.00		715.46E-03
			23.50		714.82E-03
			24.00		714.17E-03
			24.50		713.51E-03
			25.00		712.86E-03
			25.50		712.19E-03
			26.00		711.52E-03
			26.50		710.88E-03
			27.00		710.24E-03
			27.50		709.68E-03
			28.00		709.12E-03
			28.50		708.56E-03
			29.00		708.00E-03
			29.50		707.27E-03
			30.00		706.54E-03
			30.50		705.66E-03
			31.00		704.78E-03
			31.50		703.97E-03
			32.00		703.16E-03
			32.50		702.50E-03
			33.00		701.84E-03
			33.50		701.15E-03
			34.00		700.47E-03
			34.50		699.67E-03
			35.00		698.88E-03
			35.50		698.11E-03
			36.00		697.34E-03
			36.50		696.61E-03
			37.00		695.88E-03
			37.50		695.04E-03
			38.00		694.20E-03
			38.50		693.24E-03
			39.00		692.29E-03
			39.50		691.33E-03
			40.00		690.37E-03
			40.50		689.42E-03
			41.00		688.48E-03
			41.50		687.61E-03
			42.00		686.74E-03
			42.50		686.02E-03
			43.00		685.30E-03
			43.50		684.66E-03
			44.00		684.02E-03
			44.50		683.23E-03
			45.00		682.44E-03
			45.50		681.43E-03
			46.00		680.42E-03
			46.50		679.40E-03
			47.00		678.39E-03
			47.50		677.52E-03
			48.00		676.64E-03
			48.50		675.79E-03
			49.00		674.95E-03
			49.50		674.08E-03
			50.00		673.20E-03
			50.50		672.24E-03
			51.00		671.27E-03
			51.50		670.20E-03
			52.00		669.14E-03
			52.50		668.07E-03
			53.00		667.01E-03
			53.50		666.01E-03
			54.00		665.01E-03
			54.50		664.09E-03
			55.00		663.16E-03
			55.50		662.27E-03
			56.00		661.37E-03
			56.50		660.49E-03
			57.00		659.60E-03
			57.50		658.66E-03
			58.00		657.71E-03
			58.50		656.63E-03
			59.00		655.55E-03
			59.50		654.39E-03
			60.00		653.24E-03
			60.50		652.19E-03
			61.00		651.14E-03
			61.50		650.24E-03
			62.00		649.35E-03
			62.50		648.52E-03
			63.00		647.69E-03
			63.50		646.79E-03
			64.00		645.88E-03
			64.50		644.81E-03
			65.00		643.75E-03
			65.50		642.58E-03
			66.00		641.41E-03
			66.50		640.28E-03
			67.00		639.14E-03
			67.50		638.03E-03
			68.00		636.93E-03
			68.50		635.82E-03
			69.00		634.70E-03
			69.50		633.64E-03
			70.00		632.57E-03
			70.50		631.56E-03
			71.00		630.54E-03
			71.50		629.54E-03
			72.00		628.55E-03
			72.50		627.54E-03
			73.00		626.53E-03
			73.50		625.51E-03
			74.00		624.49E-03
			74.50		623.40E-03
			75.00		622.31E-03
			75.50		621.11E-03
			76.00		619.91E-03
			76.50		618.69E-03
			77.00		617.47E-03
			77.50		616.38E-03
			78.00		615.29E-03
			78.50		614.37E-03
			79.00		613.46E-03
			79.50		612.59E-03
			80.00		611.72E-03
			80.50		610.68E-03
			81.00		609.65E-03
			81.50		608.52E-03
			82.00		607.38E-03
			82.50		606.30E-03
			83.00		605.22E-03
			83.50		604.08E-03
			84.00		602.95E-03
			84.50		601.75E-03
			85.00		600.54E-03
			85.50		599.46E-03
			86.00		598.38E-03
			86.50		597.41E-03
			87.00		596.45E-03
			87.50		595.42E-03
			88.00		594.39E-03
			88.50		593.17E-03
			89.00		591.95E-03
			89.50		590.58E-03
			90.00		589.22E-03
			90.50		587.94E-03
			91.00		586.67E-03
			91.50		585.61E-03
			92.00		584.56E-03
			92.50		583.60E-03
			93.00		582.64E-03
			93.50		581.60E-03
			94.00		580.56E-03
			94.50		579.41E-03
			95.00		578.25E-03
			95.50		577.11E-03
			96.00		575.98E-03
			96.50		574.92E-03
			97.00		573.86E-03
			97.50		572.75E-03
			98.00		571.64E-03
			98.50		570.44E-03
			99.00		569.24E-03
			99.50		568.02E-03
			100.00		566.81E-03
			100.50		565.61E-03
			101.00		564.42E-03
			101.50		563.25E-03
			102.00		562.08E-03
			102.50		560.87E-03
			103.00		559.65E-03
			103.50		558.43E-03
			104.00		557.20E-03
			104.50		556.07E-03
			105.00		554.94E-03
			105.50		553.88E-03
			106.00		552.83E-03
			106.50		551.74E-03
			107.00		550.66E-03
			107.50		549.44E-03
			108.00		548.22E-03
			108.50		546.94E-03
			109.00		545.66E-03
			109.50		544.49E-03
			110.00		543.33E-03
			110.50		542.34E-03
			111.00		541.34E-03
			111.50		540.41E-03
			112.00		539.48E-03
			112.50		538.47E-03
			113.00		537.46E-03
			113.50		536.31E-03
			114.00		535.16E-03
			114.50		533.92E-03
			115.00		532.68E-03
			115.50		531.36E-03
			116.00		530.04E-03
			116.50		528.68E-03
			117.00		527.32E-03
			117.50		526.03E-03
			118.00		524.74E-03
			118.50		523.55E-03
			119.00		522.35E-03
			119.50		521.13E-03
			120.00		519.90E-03
			120.50		518.63E-03
			121.00		517.35E-03
			121.50		516.13E-03
			122.00		514.91E-03
			122.50		513.80E-03
			123.00		512.68E-03
			123.50		511.54E-03
			124.00		510.40E-03
			124.50		509.18E-03
			125.00		507.96E-03
			125.50		506.71E-03
			126.00		505.47E-03
			126.50		504.27E-03
			127.00		503.08E-03
			127.50		501.94E-03
			128.00		500.79E-03
			128.50		499.51E-03
			129.00		498.23E-03
			129.50		496.77E-03
			130.00		495.31E-03
			130.50		493.90E-03
			131.00		492.49E-03
			131.50		491.28E-03
			132.00		490.08E-03
			132.50		488.92E-03
			133.00		487.77E-03
			133.50		486.50E-03
			134.00		485.23E-03
			134.50		483.85E-03
			135.00		482.47E-03
			135.50		481.11E-03
			136.00		479.75E-03
			136.50		478.45E-03
			137.00		477.15E-03
			137.50		475.86E-03
			138.00		474.57E-03
			138.50		473.25E-03
			139.00		471.93E-03
			139.50		470.53E-03
			140.00		469.13E-03
			140.50		467.73E-03
			141.00		466.33E-03
			141.50		465.03E-03
			142.00		463.73E-03
			142.50		462.42E-03
			143.00		461.10E-03
			143.50		459.67E-03
			144.00		458.24E-03
			144.50		456.78E-03
			145.00		455.31E-03
			145.50		453.88E-03
			146.00		452.46E-03
			146.50		451.07E-03
			147.00		449.68E-03
			147.50		448.33E-03
			148.00		446.98E-03
			148.50		445.59E-03
			149.00		444.20E-03
			149.50		442.69E-03
			150.00		441.17E-03
			150.50		439.47E-03
			151.00		437.78E-03
			151.50		436.00E-03
			152.00		434.23E-03
			152.50		432.53E-03
			153.00		430.84E-03
			153.50		429.32E-03
			154.00		427.80E-03
			154.50		425.62E-03
			155.00		423.45E-03
			155.50		421.58E-03
			156.00		419.71E-03
			156.50		417.70E-03
			157.00		415.70E-03
			157.50		413.00E-03
			158.00		410.30E-03
			158.50		407.23E-03
			159.00		404.16E-03
			159.50		399.83E-03
			160.00		395.51E-03
			160.50		390.11E-03
			161.00		384.70E-03
			161.50		375.94E-03
			162.00		367.17E-03
			162.50		353.94E-03
			163.00		340.71E-03
			163.50		323.02E-03
			164.00		305.34E-03
			164.50		284.52E-03
			165.00		263.70E-03
			165.50		243.51E-03
			166.00		223.32E-03
			166.50		205.18E-03
			167.00		187.03E-03
			167.50		173.09E-03
			168.00		159.15E-03
			168.50		149.79E-03
			169.00		140.42E-03
			169.50		134.64E-03
			170.00		128.85E-03
			170.50		124.87E-03
			171.00		120.90E-03
			171.50		118.49E-03
			172.00		116.07E-03
			172.50		113.75E-03
			173.00		111.42E-03
			173.50		109.83E-03
			174.00		108.24E-03
			174.50		106.98E-03
			175.00		105.72E-03
			175.50		104.56E-03
			176.00		103.41E-03
			176.50		102.16E-03
			177.00		100.91E-03
			177.50		100.02E-03
			178.00		99.128E-03
			178.50		98.088E-03
			179.00		97.048E-03
			179.50		95.773E-03
			180.00		94.497E-03
			180.50		93.604E-03
			181.00		92.711E-03
			181.50		91.904E-03
			182.00		91.097E-03
			182.50		90.354E-03
			183.00		89.611E-03
			183.50		88.537E-03
			184.00		87.464E-03
			184.50		86.631E-03
			185.00		85.798E-03
			185.50		85.111E-03
			186.00		84.423E-03
			186.50		83.561E-03
			187.00		82.700E-03
			187.50		81.910E-03
			188.00		81.119E-03
			188.50		80.440E-03
			189.00		79.761E-03
			189.50		78.903E-03
			190.00		78.045E-03
			190.50		77.528E-03
			191.00		77.011E-03
			191.50		76.283E-03
			192.00		75.554E-03
			192.50		74.850E-03
			193.00		74.145E-03
			193.50		73.573E-03
			194.00		73.001E-03
			194.50		72.329E-03
			195.00		71.658E-03
			195.50		70.740E-03
			196.00		69.821E-03
			196.50		69.331E-03
			197.00		68.842E-03
			197.50		68.439E-03
			198.00		68.035E-03
			198.50		67.265E-03
			199.00		66.496E-03
			199.50		65.914E-03
			200.00		65.332E-03
			200.50		64.865E-03
			201.00		64.398E-03
			201.50		63.876E-03
			202.00		63.354E-03
			202.50		62.799E-03
			203.00		62.243E-03
			203.50		61.594E-03
			204.00		60.945E-03
		END_DATA
	END_SCAN  4
	BEGIN_SCAN  5
		TASK_NAME=tba PDD Profiles
		PROGRAM=WaterTankScans
		COMMENT=PDD + 5x X
		MEAS_DATE=09-Feb-2021 16:28:25
		LINAC=TRUEBEAMSN4791
		MODALITY=X
		ISOCENTER=1000.00
		INPLANE_AXIS=Y
		CROSSPLANE_AXIS=X
		DEPTH_AXIS=Depth
		INPLANE_AXIS_DIR=TARGET_GUN
		CROSSPLANE_AXIS_DIR=LEFT_RIGHT
		DEPTH_AXIS_DIR=UP_DOWN
		ENERGY=6.00
		NOMINAL_DMAX=15.00
		SSD=900.00
		SCD=450.00
		WEDGE_ANGLE=0.00
		FIELD_INPLANE=300.00
		FIELD_CROSSPLANE=300.00
		FIELD_TYPE=RECTANGULAR
		GANTRY=0.00
		GANTRY_UPRIGHT_POSITION=0
		GANTRY_ROTATION=CW
		COLL_ANGLE=0.00
		COLL_OFFSET_INPLANE=0.00
		COLL_OFFSET_CROSSPLANE=0.00
		SCAN_DEVICE=BeamScan
		SCAN_DEVICE_SETUP=BARA_LEFT_RIGHT
		ELECTROMETER=BeamScan
		RANGE_FIELD=LOW
		RANGE_REFERENCE=MEDIUM
		DETECTOR=THIMBLE_CHAMBER
		DETECTOR_SUBCODE=SEMIFLEX
		DETECTOR_RADIUS=2.40
		DETECTOR_NAME=PTW 31021 Semiflex 3D (1)
		DETECTOR_SN=142316
		DETECTOR_CALIBRATION=588000000.00
		DETECTOR_IS_CALIBRATED=1
		DETECTOR_REFERENCE=THIMBLE_CHAMBER
		DETECTOR_REFERENCE_SUBCODE=SEMIFLEX
		DETECTOR_REFERENCE_RADIUS=2.75
		DETECTOR_REFERENCE_NAME=PTW 31010 Semiflex (1)
		DETECTOR_REFERENCE_SN=â€”
		DETECTOR_REFERENCE_IS_CALIBRATED=0
		DETECTOR_REFERENCE_CALIBRATION=303000000.00
		DETECTOR_HV=400.0
		DETECTOR_REFERENCE_HV=400.0
		DETECTOR_ORIENTATION=HORIZONTAL
		FILTER=FFF
		SCAN_SPEED_PROFILE=12.50
		SCAN_PROF_SPEED_DEP=DEPTH
		SCAN_SPEED_PDD=12.50
		SCAN_PDD_SPEED_DEP=ENERGY
		DETECTOR_TYPE=T31021
		REF_FIELD_DEPTH=100.00
		REF_FIELD_DEFINED=ISOCENTER
		REF_FIELD_INPLANE=100.00
		REF_FIELD_CROSSPLANE=100.00
		REF_SCAN_POSITIONS=-85.00;-84.00;-83.00;-82.00;-81.00;-80.00;-79.00;-78.00;-77.00;-76.00;-75.00;-74.00;-73.00;-72.00;-71.00;-70.00;-69.00;-68.00;-67.00;-66.00;-65.00;-64.00;-63.00;-62.00;-61.00;-60.00;-59.00;-58.00;-57.00;-56.00;-55.00;-54.00;-53.00;-52.00;-51.00;-50.00;-49.00;-48.00;-47.00;-46.00;-45.00;-44.00;-43.00;-42.00;-41.00;-40.00;-39.00;-38.00;-37.00;-36.00;-35.00;-34.00;-33.00;-32.00;-31.00;-30.00;-29.00;-28.00;-27.00;-26.00;-25.00;-24.00;-23.00;-22.00;-21.00;-20.00;-19.00;-18.00;-17.00;-16.00;-15.00;-14.00;-13.00;-12.00;-11.00;-10.00;-9.00;-8.00;-7.00;-6.00;-5.00;-4.00;-3.00;-2.00;-1.00;0.00;1.00;2.00;3.00;4.00;5.00;6.00;7.00;8.00;9.00;10.00;11.00;12.00;13.00;14.00;15.00;16.00;17.00;18.00;19.00;20.00;21.00;22.00;23.00;24.00;25.00;26.00;27.00;28.00;29.00;30.00;31.00;32.00;33.00;34.00;35.00;36.00;37.00;38.00;39.00;40.00;41.00;42.00;43.00;44.00;45.00;46.00;47.00;48.00;49.00;50.00;51.00;52.00;53.00;54.00;55.00;56.00;57.00;58.00;59.00;60.00;61.00;62.00;63.00;64.00;65.00;66.00;67.00;68.00;69.00;70.00;71.00;72.00;73.00;74.00;75.00;76.00;77.00;78.00;79.00;80.00;81.00;82.00;83.00;84.00;85.00;
		REF_OVERSCAN_FACTOR=1.00
		SCAN_CURVETYPE=CROSSPLANE_PROFILE
		SCAN_DEPTH=300.00
		SCAN_OFFAXIS_INPLANE=0.00
		SCAN_OFFAXIS_CROSSPLANE=0.00
		SCAN_ANGLE=0.00
		SCAN_DIAGONAL=NOT_DIAGONAL
		SCAN_DIRECTION=POSITIVE
		MEAS_MEDIUM=WATER
		MEAS_PRESET=MEAS_CONTINUOUS_REFERENCE_SCAN
		MEAS_TIME=0.080
		MEAS_UNIT=A.U.
		INCLINATION_ANGLE=0.00
		PRESSURE=1013.25
		TEMPERATURE=20.00
		NORM_TEMPERATURE=20.00
		CORRECTION_FACTOR=1.0000
		EXPECTED_MAX_DOSE_RATE=3.00
		EPOM_DEPTH_SHIFT=0.2
		EPOM_MODE=SHIFT_PROTOCOL
		CORRECTIONS=SMOOTHED_CORR;SYMMETRY_CORR;INTERPOLATED_CORR;
		BEGIN_DATA
			-222.00		42.622E-03
			-221.50		42.967E-03
			-221.00		43.313E-03
			-220.50		43.676E-03
			-220.00		44.039E-03
			-219.50		44.446E-03
			-219.00		44.853E-03
			-218.50		45.231E-03
			-218.00		45.608E-03
			-217.50		45.833E-03
			-217.00		46.058E-03
			-216.50		46.429E-03
			-216.00		46.799E-03
			-215.50		47.179E-03
			-215.00		47.559E-03
			-214.50		47.937E-03
			-214.00		48.316E-03
			-213.50		48.534E-03
			-213.00		48.753E-03
			-212.50		49.103E-03
			-212.00		49.452E-03
			-211.50		49.860E-03
			-211.00		50.268E-03
			-210.50		50.864E-03
			-210.00		51.460E-03
			-209.50		51.625E-03
			-209.00		51.790E-03
			-208.50		52.180E-03
			-208.00		52.571E-03
			-207.50		53.177E-03
			-207.00		53.783E-03
			-206.50		54.201E-03
			-206.00		54.619E-03
			-205.50		55.048E-03
			-205.00		55.477E-03
			-204.50		55.819E-03
			-204.00		56.161E-03
			-203.50		56.724E-03
			-203.00		57.286E-03
			-202.50		57.673E-03
			-202.00		58.060E-03
			-201.50		58.562E-03
			-201.00		59.064E-03
			-200.50		59.384E-03
			-200.00		59.704E-03
			-199.50		60.429E-03
			-199.00		61.153E-03
			-198.50		61.710E-03
			-198.00		62.266E-03
			-197.50		62.585E-03
			-197.00		62.904E-03
			-196.50		63.474E-03
			-196.00		64.043E-03
			-195.50		64.552E-03
			-195.00		65.061E-03
			-194.50		65.440E-03
			-194.00		65.819E-03
			-193.50		66.488E-03
			-193.00		67.157E-03
			-192.50		67.866E-03
			-192.00		68.575E-03
			-191.50		69.291E-03
			-191.00		70.007E-03
			-190.50		70.752E-03
			-190.00		71.497E-03
			-189.50		72.148E-03
			-189.00		72.798E-03
			-188.50		74.019E-03
			-188.00		75.239E-03
			-187.50		76.358E-03
			-187.00		77.478E-03
			-186.50		78.919E-03
			-186.00		80.359E-03
			-185.50		82.370E-03
			-185.00		84.381E-03
			-184.50		87.694E-03
			-184.00		91.008E-03
			-183.50		95.874E-03
			-183.00		100.74E-03
			-182.50		107.82E-03
			-182.00		114.90E-03
			-181.50		123.96E-03
			-181.00		133.02E-03
			-180.50		143.27E-03
			-180.00		153.51E-03
			-179.50		163.70E-03
			-179.00		173.89E-03
			-178.50		182.37E-03
			-178.00		190.84E-03
			-177.50		197.66E-03
			-177.00		204.48E-03
			-176.50		209.39E-03
			-176.00		214.29E-03
			-175.50		217.61E-03
			-175.00		220.93E-03
			-174.50		223.17E-03
			-174.00		225.40E-03
			-173.50		227.08E-03
			-173.00		228.76E-03
			-172.50		230.58E-03
			-172.00		232.40E-03
			-171.50		233.46E-03
			-171.00		234.52E-03
			-170.50		235.43E-03
			-170.00		236.34E-03
			-169.50		237.43E-03
			-169.00		238.53E-03
			-168.50		239.55E-03
			-168.00		240.57E-03
			-167.50		241.54E-03
			-167.00		242.50E-03
			-166.50		243.41E-03
			-166.00		244.31E-03
			-165.50		245.18E-03
			-165.00		246.04E-03
			-164.50		246.87E-03
			-164.00		247.69E-03
			-163.50		248.52E-03
			-163.00		249.34E-03
			-162.50		250.17E-03
			-162.00		251.00E-03
			-161.50		251.82E-03
			-161.00		252.64E-03
			-160.50		253.42E-03
			-160.00		254.20E-03
			-159.50		254.96E-03
			-159.00		255.72E-03
			-158.50		256.51E-03
			-158.00		257.29E-03
			-157.50		258.07E-03
			-157.00		258.86E-03
			-156.50		259.63E-03
			-156.00		260.40E-03
			-155.50		261.15E-03
			-155.00		261.90E-03
			-154.50		262.63E-03
			-154.00		263.36E-03
			-153.50		264.07E-03
			-153.00		264.78E-03
			-152.50		265.53E-03
			-152.00		266.27E-03
			-151.50		267.06E-03
			-151.00		267.85E-03
			-150.50		268.63E-03
			-150.00		269.41E-03
			-149.50		270.13E-03
			-149.00		270.86E-03
			-148.50		271.56E-03
			-148.00		272.27E-03
			-147.50		272.98E-03
			-147.00		273.70E-03
			-146.50		274.44E-03
			-146.00		275.18E-03
			-145.50		275.87E-03
			-145.00		276.55E-03
			-144.50		277.15E-03
			-144.00		277.76E-03
			-143.50		278.41E-03
			-143.00		279.07E-03
			-142.50		279.86E-03
			-142.00		280.64E-03
			-141.50		281.42E-03
			-141.00		282.20E-03
			-140.50		282.86E-03
			-140.00		283.52E-03
			-139.50		284.13E-03
			-139.00		284.74E-03
			-138.50		285.39E-03
			-138.00		286.03E-03
			-137.50		286.71E-03
			-137.00		287.39E-03
			-136.50		288.02E-03
			-136.00		288.66E-03
			-135.50		289.27E-03
			-135.00		289.89E-03
			-134.50		290.60E-03
			-134.00		291.31E-03
			-133.50		292.10E-03
			-133.00		292.89E-03
			-132.50		293.66E-03
			-132.00		294.44E-03
			-131.50		295.16E-03
			-131.00		295.88E-03
			-130.50		296.58E-03
			-130.00		297.28E-03
			-129.50		297.94E-03
			-129.00		298.59E-03
			-128.50		299.19E-03
			-128.00		299.78E-03
			-127.50		300.40E-03
			-127.00		301.01E-03
			-126.50		301.70E-03
			-126.00		302.39E-03
			-125.50		303.09E-03
			-125.00		303.80E-03
			-124.50		304.48E-03
			-124.00		305.16E-03
			-123.50		305.81E-03
			-123.00		306.46E-03
			-122.50		307.11E-03
			-122.00		307.75E-03
			-121.50		308.43E-03
			-121.00		309.12E-03
			-120.50		309.76E-03
			-120.00		310.41E-03
			-119.50		311.00E-03
			-119.00		311.59E-03
			-118.50		312.20E-03
			-118.00		312.82E-03
			-117.50		313.50E-03
			-117.00		314.18E-03
			-116.50		314.89E-03
			-116.00		315.61E-03
			-115.50		316.34E-03
			-115.00		317.07E-03
			-114.50		317.75E-03
			-114.00		318.43E-03
			-113.50		318.96E-03
			-113.00		319.49E-03
			-112.50		319.93E-03
			-112.00		320.37E-03
			-111.50		320.86E-03
			-111.00		321.36E-03
			-110.50		321.99E-03
			-110.00		322.62E-03
			-109.50		323.34E-03
			-109.00		324.06E-03
			-108.50		324.80E-03
			-108.00		325.53E-03
			-107.50		326.20E-03
			-107.00		326.87E-03
			-106.50		327.46E-03
			-106.00		328.06E-03
			-105.50		328.64E-03
			-105.00		329.21E-03
			-104.50		329.75E-03
			-104.00		330.29E-03
			-103.50		330.78E-03
			-103.00		331.27E-03
			-102.50		331.84E-03
			-102.00		332.42E-03
			-101.50		333.14E-03
			-101.00		333.85E-03
			-100.50		334.62E-03
			-100.00		335.39E-03
			-99.50		336.06E-03
			-99.00		336.74E-03
			-98.50		337.27E-03
			-98.00		337.81E-03
			-97.50		338.30E-03
			-97.00		338.80E-03
			-96.50		339.33E-03
			-96.00		339.86E-03
			-95.50		340.47E-03
			-95.00		341.08E-03
			-94.50		341.75E-03
			-94.00		342.41E-03
			-93.50		343.03E-03
			-93.00		343.65E-03
			-92.50		344.20E-03
			-92.00		344.74E-03
			-91.50		345.31E-03
			-91.00		345.89E-03
			-90.50		346.54E-03
			-90.00		347.19E-03
			-89.50		347.84E-03
			-89.00		348.49E-03
			-88.50		349.05E-03
			-88.00		349.62E-03
			-87.50		350.10E-03
			-87.00		350.59E-03
			-86.50		351.11E-03
			-86.00		351.64E-03
			-85.50		352.31E-03
			-85.00		352.98E-03
			-84.50		353.73E-03
			-84.00		354.47E-03
			-83.50		355.09E-03
			-83.00		355.70E-03
			-82.50		356.15E-03
			-82.00		356.60E-03
			-81.50		357.07E-03
			-81.00		357.54E-03
			-80.50		358.16E-03
			-80.00		358.77E-03
			-79.50		359.45E-03
			-79.00		360.14E-03
			-78.50		360.70E-03
			-78.00		361.26E-03
			-77.50		361.73E-03
			-77.00		362.19E-03
			-76.50		362.74E-03
			-76.00		363.29E-03
			-75.50		363.93E-03
			-75.00		364.58E-03
			-74.50		365.15E-03
			-74.00		365.72E-03
			-73.50		366.21E-03
			-73.00		366.71E-03
			-72.50		367.24E-03
			-72.00		367.77E-03
			-71.50		368.32E-03
			-71.00		368.88E-03
			-70.50		369.43E-03
			-70.00		369.98E-03
			-69.50		370.61E-03
			-69.00		371.24E-03
			-68.50		371.87E-03
			-68.00		372.51E-03
			-67.50		373.06E-03
			-67.00		373.62E-03
			-66.50		374.15E-03
			-66.00		374.69E-03
			-65.50		375.23E-03
			-65.00		375.77E-03
			-64.50		376.31E-03
			-64.00		376.85E-03
			-63.50		377.36E-03
			-63.00		377.88E-03
			-62.50		378.39E-03
			-62.00		378.89E-03
			-61.50		379.44E-03
			-61.00		379.99E-03
			-60.50		380.60E-03
			-60.00		381.21E-03
			-59.50		381.82E-03
			-59.00		382.43E-03
			-58.50		383.00E-03
			-58.00		383.57E-03
			-57.50		384.08E-03
			-57.00		384.60E-03
			-56.50		385.04E-03
			-56.00		385.49E-03
			-55.50		385.90E-03
			-55.00		386.31E-03
			-54.50		386.73E-03
			-54.00		387.15E-03
			-53.50		387.56E-03
			-53.00		387.97E-03
			-52.50		388.40E-03
			-52.00		388.84E-03
			-51.50		389.38E-03
			-51.00		389.91E-03
			-50.50		390.51E-03
			-50.00		391.11E-03
			-49.50		391.67E-03
			-49.00		392.23E-03
			-48.50		392.72E-03
			-48.00		393.20E-03
			-47.50		393.67E-03
			-47.00		394.14E-03
			-46.50		394.67E-03
			-46.00		395.20E-03
			-45.50		395.69E-03
			-45.00		396.18E-03
			-44.50		396.48E-03
			-44.00		396.78E-03
			-43.50		396.97E-03
			-43.00		397.16E-03
			-42.50		397.48E-03
			-42.00		397.80E-03
			-41.50		398.32E-03
			-41.00		398.84E-03
			-40.50		399.46E-03
			-40.00		400.07E-03
			-39.50		400.65E-03
			-39.00		401.22E-03
			-38.50		401.70E-03
			-38.00		402.19E-03
			-37.50		402.56E-03
			-37.00		402.93E-03
			-36.50		403.19E-03
			-36.00		403.46E-03
			-35.50		403.74E-03
			-35.00		404.02E-03
			-34.50		404.40E-03
			-34.00		404.79E-03
			-33.50		405.19E-03
			-33.00		405.58E-03
			-32.50		405.93E-03
			-32.00		406.29E-03
			-31.50		406.67E-03
			-31.00		407.05E-03
			-30.50		407.42E-03
			-30.00		407.80E-03
			-29.50		408.06E-03
			-29.00		408.32E-03
			-28.50		408.51E-03
			-28.00		408.69E-03
			-27.50		408.92E-03
			-27.00		409.16E-03
			-26.50		409.50E-03
			-26.00		409.84E-03
			-25.50		410.27E-03
			-25.00		410.71E-03
			-24.50		411.13E-03
			-24.00		411.54E-03
			-23.50		411.76E-03
			-23.00		411.99E-03
			-22.50		412.13E-03
			-22.00		412.27E-03
			-21.50		412.56E-03
			-21.00		412.85E-03
			-20.50		413.18E-03
			-20.00		413.51E-03
			-19.50		413.74E-03
			-19.00		413.98E-03
			-18.50		414.18E-03
			-18.00		414.38E-03
			-17.50		414.63E-03
			-17.00		414.88E-03
			-16.50		415.12E-03
			-16.00		415.36E-03
			-15.50		415.56E-03
			-15.00		415.76E-03
			-14.50		415.94E-03
			-14.00		416.11E-03
			-13.50		416.24E-03
			-13.00		416.37E-03
			-12.50		416.45E-03
			-12.00		416.53E-03
			-11.50		416.64E-03
			-11.00		416.75E-03
			-10.50		416.95E-03
			-10.00		417.15E-03
			-9.50		417.32E-03
			-9.00		417.50E-03
			-8.50		417.61E-03
			-8.00		417.73E-03
			-7.50		417.87E-03
			-7.00		418.02E-03
			-6.50		418.22E-03
			-6.00		418.42E-03
			-5.50		418.51E-03
			-5.00		418.61E-03
			-4.50		418.56E-03
			-4.00		418.51E-03
			-3.50		418.44E-03
			-3.00		418.38E-03
			-2.50		418.40E-03
			-2.00		418.42E-03
			-1.50		418.46E-03
			-1.00		418.51E-03
			-0.50		418.53E-03
			0.00		418.56E-03
			0.50		418.53E-03
			1.00		418.51E-03
			1.50		418.46E-03
			2.00		418.42E-03
			2.50		418.40E-03
			3.00		418.38E-03
			3.50		418.44E-03
			4.00		418.51E-03
			4.50		418.56E-03
			5.00		418.61E-03
			5.50		418.51E-03
			6.00		418.42E-03
			6.50		418.22E-03
			7.00		418.02E-03
			7.50		417.87E-03
			8.00		417.73E-03
			8.50		417.61E-03
			9.00		417.50E-03
			9.50		417.32E-03
			10.00		417.15E-03
			10.50		416.95E-03
			11.00		416.75E-03
			11.50		416.64E-03
			12.00		416.53E-03
			12.50		416.45E-03
			13.00		416.37E-03
			13.50		416.24E-03
			14.00		416.11E-03
			14.50		415.94E-03
			15.00		415.76E-03
			15.50		415.56E-03
			16.00		415.36E-03
			16.50		415.12E-03
			17.00		414.88E-03
			17.50		414.63E-03
			18.00		414.38E-03
			18.50		414.18E-03
			19.00		413.98E-03
			19.50		413.74E-03
			20.00		413.51E-03
			20.50		413.18E-03
			21.00		412.85E-03
			21.50		412.56E-03
			22.00		412.27E-03
			22.50		412.13E-03
			23.00		411.99E-03
			23.50		411.76E-03
			24.00		411.54E-03
			24.50		411.13E-03
			25.00		410.71E-03
			25.50		410.27E-03
			26.00		409.84E-03
			26.50		409.50E-03
			27.00		409.16E-03
			27.50		408.92E-03
			28.00		408.69E-03
			28.50		408.51E-03
			29.00		408.32E-03
			29.50		408.06E-03
			30.00		407.80E-03
			30.50		407.42E-03
			31.00		407.05E-03
			31.50		406.67E-03
			32.00		406.29E-03
			32.50		405.93E-03
			33.00		405.58E-03
			33.50		405.19E-03
			34.00		404.79E-03
			34.50		404.40E-03
			35.00		404.02E-03
			35.50		403.74E-03
			36.00		403.46E-03
			36.50		403.19E-03
			37.00		402.93E-03
			37.50		402.56E-03
			38.00		402.19E-03
			38.50		401.70E-03
			39.00		401.22E-03
			39.50		400.65E-03
			40.00		400.07E-03
			40.50		399.46E-03
			41.00		398.84E-03
			41.50		398.32E-03
			42.00		397.80E-03
			42.50		397.48E-03
			43.00		397.16E-03
			43.50		396.97E-03
			44.00		396.78E-03
			44.50		396.48E-03
			45.00		396.18E-03
			45.50		395.69E-03
			46.00		395.20E-03
			46.50		394.67E-03
			47.00		394.14E-03
			47.50		393.67E-03
			48.00		393.20E-03
			48.50		392.72E-03
			49.00		392.23E-03
			49.50		391.67E-03
			50.00		391.11E-03
			50.50		390.51E-03
			51.00		389.91E-03
			51.50		389.38E-03
			52.00		388.84E-03
			52.50		388.40E-03
			53.00		387.97E-03
			53.50		387.56E-03
			54.00		387.15E-03
			54.50		386.73E-03
			55.00		386.31E-03
			55.50		385.90E-03
			56.00		385.49E-03
			56.50		385.04E-03
			57.00		384.60E-03
			57.50		384.08E-03
			58.00		383.57E-03
			58.50		383.00E-03
			59.00		382.43E-03
			59.50		381.82E-03
			60.00		381.21E-03
			60.50		380.60E-03
			61.00		379.99E-03
			61.50		379.44E-03
			62.00		378.89E-03
			62.50		378.39E-03
			63.00		377.88E-03
			63.50		377.36E-03
			64.00		376.85E-03
			64.50		376.31E-03
			65.00		375.77E-03
			65.50		375.23E-03
			66.00		374.69E-03
			66.50		374.15E-03
			67.00		373.62E-03
			67.50		373.06E-03
			68.00		372.51E-03
			68.50		371.87E-03
			69.00		371.24E-03
			69.50		370.61E-03
			70.00		369.98E-03
			70.50		369.43E-03
			71.00		368.88E-03
			71.50		368.32E-03
			72.00		367.77E-03
			72.50		367.24E-03
			73.00		366.71E-03
			73.50		366.21E-03
			74.00		365.72E-03
			74.50		365.15E-03
			75.00		364.58E-03
			75.50		363.93E-03
			76.00		363.29E-03
			76.50		362.74E-03
			77.00		362.19E-03
			77.50		361.73E-03
			78.00		361.26E-03
			78.50		360.70E-03
			79.00		360.14E-03
			79.50		359.45E-03
			80.00		358.77E-03
			80.50		358.16E-03
			81.00		357.54E-03
			81.50		357.07E-03
			82.00		356.60E-03
			82.50		356.15E-03
			83.00		355.70E-03
			83.50		355.09E-03
			84.00		354.47E-03
			84.50		353.73E-03
			85.00		352.98E-03
			85.50		352.31E-03
			86.00		351.64E-03
			86.50		351.11E-03
			87.00		350.59E-03
			87.50		350.10E-03
			88.00		349.62E-03
			88.50		349.05E-03
			89.00		348.49E-03
			89.50		347.84E-03
			90.00		347.19E-03
			90.50		346.54E-03
			91.00		345.89E-03
			91.50		345.31E-03
			92.00		344.74E-03
			92.50		344.20E-03
			93.00		343.65E-03
			93.50		343.03E-03
			94.00		342.41E-03
			94.50		341.75E-03
			95.00		341.08E-03
			95.50		340.47E-03
			96.00		339.86E-03
			96.50		339.33E-03
			97.00		338.80E-03
			97.50		338.30E-03
			98.00		337.81E-03
			98.50		337.27E-03
			99.00		336.74E-03
			99.50		336.06E-03
			100.00		335.39E-03
			100.50		334.62E-03
			101.00		333.85E-03
			101.50		333.14E-03
			102.00		332.42E-03
			102.50		331.84E-03
			103.00		331.27E-03
			103.50		330.78E-03
			104.00		330.29E-03
			104.50		329.75E-03
			105.00		329.21E-03
			105.50		328.64E-03
			106.00		328.06E-03
			106.50		327.46E-03
			107.00		326.87E-03
			107.50		326.20E-03
			108.00		325.53E-03
			108.50		324.80E-03
			109.00		324.06E-03
			109.50		323.34E-03
			110.00		322.62E-03
			110.50		321.99E-03
			111.00		321.36E-03
			111.50		320.86E-03
			112.00		320.37E-03
			112.50		319.93E-03
			113.00		319.49E-03
			113.50		318.96E-03
			114.00		318.43E-03
			114.50		317.75E-03
			115.00		317.07E-03
			115.50		316.34E-03
			116.00		315.61E-03
			116.50		314.89E-03
			117.00		314.18E-03
			117.50		313.50E-03
			118.00		312.82E-03
			118.50		312.20E-03
			119.00		311.59E-03
			119.50		311.00E-03
			120.00		310.41E-03
			120.50		309.76E-03
			121.00		309.12E-03
			121.50		308.43E-03
			122.00		307.75E-03
			122.50		307.11E-03
			123.00		306.46E-03
			123.50		305.81E-03
			124.00		305.16E-03
			124.50		304.48E-03
			125.00		303.80E-03
			125.50		303.09E-03
			126.00		302.39E-03
			126.50		301.70E-03
			127.00		301.01E-03
			127.50		300.40E-03
			128.00		299.78E-03
			128.50		299.19E-03
			129.00		298.59E-03
			129.50		297.94E-03
			130.00		297.28E-03
			130.50		296.58E-03
			131.00		295.88E-03
			131.50		295.16E-03
			132.00		294.44E-03
			132.50		293.66E-03
			133.00		292.89E-03
			133.50		292.10E-03
			134.00		291.31E-03
			134.50		290.60E-03
			135.00		289.89E-03
			135.50		289.27E-03
			136.00		288.66E-03
			136.50		288.02E-03
			137.00		287.39E-03
			137.50		286.71E-03
			138.00		286.03E-03
			138.50		285.39E-03
			139.00		284.74E-03
			139.50		284.13E-03
			140.00		283.52E-03
			140.50		282.86E-03
			141.00		282.20E-03
			141.50		281.42E-03
			142.00		280.64E-03
			142.50		279.86E-03
			143.00		279.07E-03
			143.50		278.41E-03
			144.00		277.76E-03
			144.50		277.15E-03
			145.00		276.55E-03
			145.50		275.87E-03
			146.00		275.18E-03
			146.50		274.44E-03
			147.00		273.70E-03
			147.50		272.98E-03
			148.00		272.27E-03
			148.50		271.56E-03
			149.00		270.86E-03
			149.50		270.13E-03
			150.00		269.41E-03
			150.50		268.63E-03
			151.00		267.85E-03
			151.50		267.06E-03
			152.00		266.27E-03
			152.50		265.53E-03
			153.00		264.78E-03
			153.50		264.07E-03
			154.00		263.36E-03
			154.50		262.63E-03
			155.00		261.90E-03
			155.50		261.15E-03
			156.00		260.40E-03
			156.50		259.63E-03
			157.00		258.86E-03
			157.50		258.07E-03
			158.00		257.29E-03
			158.50		256.51E-03
			159.00		255.72E-03
			159.50		254.96E-03
			160.00		254.20E-03
			160.50		253.42E-03
			161.00		252.64E-03
			161.50		251.82E-03
			162.00		251.00E-03
			162.50		250.17E-03
			163.00		249.34E-03
			163.50		248.52E-03
			164.00		247.69E-03
			164.50		246.87E-03
			165.00		246.04E-03
			165.50		245.18E-03
			166.00		244.31E-03
			166.50		243.41E-03
			167.00		242.50E-03
			167.50		241.54E-03
			168.00		240.57E-03
			168.50		239.55E-03
			169.00		238.53E-03
			169.50		237.43E-03
			170.00		236.34E-03
			170.50		235.43E-03
			171.00		234.52E-03
			171.50		233.46E-03
			172.00		232.40E-03
			172.50		230.58E-03
			173.00		228.76E-03
			173.50		227.08E-03
			174.00		225.40E-03
			174.50		223.17E-03
			175.00		220.93E-03
			175.50		217.61E-03
			176.00		214.29E-03
			176.50		209.39E-03
			177.00		204.48E-03
			177.50		197.66E-03
			178.00		190.84E-03
			178.50		182.37E-03
			179.00		173.89E-03
			179.50		163.70E-03
			180.00		153.51E-03
			180.50		143.27E-03
			181.00		133.02E-03
			181.50		123.96E-03
			182.00		114.90E-03
			182.50		107.82E-03
			183.00		100.74E-03
			183.50		95.874E-03
			184.00		91.008E-03
			184.50		87.694E-03
			185.00		84.381E-03
			185.50		82.370E-03
			186.00		80.359E-03
			186.50		78.919E-03
			187.00		77.478E-03
			187.50		76.358E-03
			188.00		75.239E-03
			188.50		74.019E-03
			189.00		72.798E-03
			189.50		72.148E-03
			190.00		71.497E-03
			190.50		70.752E-03
			191.00		70.007E-03
			191.50		69.291E-03
			192.00		68.575E-03
			192.50		67.866E-03
			193.00		67.157E-03
			193.50		66.488E-03
			194.00		65.819E-03
			194.50		65.440E-03
			195.00		65.061E-03
			195.50		64.552E-03
			196.00		64.043E-03
			196.50		63.474E-03
			197.00		62.904E-03
			197.50		62.585E-03
			198.00		62.266E-03
			198.50		61.710E-03
			199.00		61.153E-03
			199.50		60.429E-03
			200.00		59.704E-03
			200.50		59.384E-03
			201.00		59.064E-03
			201.50		58.562E-03
			202.00		58.060E-03
			202.50		57.673E-03
			203.00		57.286E-03
			203.50		56.724E-03
			204.00		56.161E-03
			204.50		55.819E-03
			205.00		55.477E-03
			205.50		55.048E-03
			206.00		54.619E-03
			206.50		54.201E-03
			207.00		53.783E-03
			207.50		53.177E-03
			208.00		52.571E-03
			208.50		52.180E-03
			209.00		51.790E-03
			209.50		51.625E-03
			210.00		51.460E-03
			210.50		50.864E-03
			211.00		50.268E-03
			211.50		49.860E-03
			212.00		49.452E-03
			212.50		49.103E-03
			213.00		48.753E-03
			213.50		48.534E-03
			214.00		48.316E-03
			214.50		47.937E-03
			215.00		47.559E-03
			215.50		47.179E-03
			216.00		46.799E-03
			216.50		46.429E-03
			217.00		46.058E-03
			217.50		45.833E-03
			218.00		45.608E-03
			218.50		45.231E-03
			219.00		44.853E-03
			219.50		44.446E-03
			220.00		44.039E-03
			220.50		43.676E-03
			221.00		43.313E-03
			221.50		42.967E-03
			222.00		42.622E-03
		END_DATA
	END_SCAN  5
END_SCAN_DATA
