BEGIN_SCAN_DATA
	FORMAT=CC-Export V1.9                  
	FILE_CREATION_DATE=11-Mar-2022 17:21:11
	LAST_MODIFIED=11-Mar-2022 17:21:11
	BEGIN_SCAN  1
		TASK_NAME=tba PDD Profiles
		PROGRAM=WaterTankScans
		COMMENT=Gemelli
		MEAS_DATE=08-Feb-2021 09:38:10
		LINAC=MRIdian
		MODALITY=X
		ISOCENTER=900.00
		INPLANE_AXIS=Y
		CROSSPLANE_AXIS=X
		DEPTH_AXIS=Depth
		INPLANE_AXIS_DIR=TARGET_GUN
		CROSSPLANE_AXIS_DIR=LEFT_RIGHT
		DEPTH_AXIS_DIR=UP_DOWN
		ENERGY=6.00
		NOMINAL_DMAX=15.00
		SSD=850.00
		SCD=450.00
		WEDGE_ANGLE=0.00
		FIELD_INPLANE=149.40
		FIELD_CROSSPLANE=149.40
		FIELD_TYPE=RECTANGULAR
		GANTRY=0.00
		GANTRY_UPRIGHT_POSITION=0
		GANTRY_ROTATION=CW
		COLL_ANGLE=0.00
		COLL_OFFSET_INPLANE=0.00
		COLL_OFFSET_CROSSPLANE=0.00
		SCAN_DEVICE=BeamScan
		SCAN_DEVICE_SETUP=BARA_LEFT_RIGHT
		ELECTROMETER=BeamScan
		RANGE_FIELD=LOW
		RANGE_REFERENCE=MEDIUM
		DETECTOR=THIMBLE_CHAMBER
		DETECTOR_RADIUS=2.40
		DETECTOR_NAME=A28MR
		DETECTOR_SN=-
		DETECTOR_CALIBRATION=588000000.00
		DETECTOR_IS_CALIBRATED=0
		DETECTOR_REFERENCE=THIMBLE_CHAMBER
		DETECTOR_REFERENCE_RADIUS=2.75
		DETECTOR_REFERENCE_NAME=A28MR
		DETECTOR_REFERENCE_SN=—
		DETECTOR_REFERENCE_IS_CALIBRATED=0
		DETECTOR_REFERENCE_CALIBRATION=303000000.00
		DETECTOR_HV=300.0
		DETECTOR_REFERENCE_HV=300.0
		DETECTOR_ORIENTATION=HORIZONTAL
		FILTER=FFF
		SCAN_SPEED_PROFILE=10.00
		SCAN_PROF_SPEED_DEP=DEPTH
		SCAN_SPEED_PDD=0.00
		SCAN_PDD_SPEED_DEP=ENERGY
		DETECTOR_TYPE=A28MR
		REF_FIELD_DEPTH=220.00
		REF_FIELD_DEFINED=ISOCENTER
		REF_FIELD_INPLANE=100.00
		REF_FIELD_CROSSPLANE=100.00
		REF_SCAN_POSITIONS=-85.00;-84.00;-83.00;-82.00;-81.00;-80.00;-79.00;-78.00;-77.00;-76.00;-75.00;-74.00;-73.00;-72.00;-71.00;-70.00;-69.00;-68.00;-67.00;-66.00;-65.00;-64.00;-63.00;-62.00;-61.00;-60.00;-59.00;-58.00;-57.00;-56.00;-55.00;-54.00;-53.00;-52.00;-51.00;-50.00;-49.00;-48.00;-47.00;-46.00;-45.00;-44.00;-43.00;-42.00;-41.00;-40.00;-39.00;-38.00;-37.00;-36.00;-35.00;-34.00;-33.00;-32.00;-31.00;-30.00;-29.00;-28.00;-27.00;-26.00;-25.00;-24.00;-23.00;-22.00;-21.00;-20.00;-19.00;-18.00;-17.00;-16.00;-15.00;-14.00;-13.00;-12.00;-11.00;-10.00;-9.00;-8.00;-7.00;-6.00;-5.00;-4.00;-3.00;-2.00;-1.00;0.00;1.00;2.00;3.00;4.00;5.00;6.00;7.00;8.00;9.00;10.00;11.00;12.00;13.00;14.00;15.00;16.00;17.00;18.00;19.00;20.00;21.00;22.00;23.00;24.00;25.00;26.00;27.00;28.00;29.00;30.00;31.00;32.00;33.00;34.00;35.00;36.00;37.00;38.00;39.00;40.00;41.00;42.00;43.00;44.00;45.00;46.00;47.00;48.00;49.00;50.00;51.00;52.00;53.00;54.00;55.00;56.00;57.00;58.00;59.00;60.00;61.00;62.00;63.00;64.00;65.00;66.00;67.00;68.00;69.00;70.00;71.00;72.00;73.00;74.00;75.00;76.00;77.00;78.00;79.00;80.00;81.00;82.00;83.00;84.00;85.00;
		REF_OVERSCAN_FACTOR=1.00
		SCAN_CURVETYPE=CROSSPLANE_PROFILE
		SCAN_DEPTH=20.00
		SCAN_OFFAXIS_INPLANE=0.00
		SCAN_OFFAXIS_CROSSPLANE=0.00
		SCAN_ANGLE=0.00
		SCAN_DIAGONAL=NOT_DIAGONAL
		SCAN_DIRECTION=POSITIVE
		MEAS_MEDIUM=WATER
		MEAS_PRESET=MEAS_CONTINUOUS_REFERENCE_SCAN
		MEAS_TIME=0.100
		MEAS_UNIT=A.U.
		INCLINATION_ANGLE=0.00
		PRESSURE=1013.25
		TEMPERATURE=20.00
		NORM_TEMPERATURE=20.00
		CORRECTION_FACTOR=1.0000
		EXPECTED_MAX_DOSE_RATE=3.00
		EPOM_DEPTH_SHIFT=0.2
		EPOM_MODE=SHIFT_PROTOCOL
		CORRECTIONS=CAX_CORR;INTERPOLATED_CORR;SYMMETRY_CORR;
		BEGIN_DATA
			-120.00		7.1425E+00
			-119.50		7.3044E+00
			-119.00		7.3858E+00
			-118.50		7.4818E+00
			-118.00		7.5521E+00
			-117.50		7.6007E+00
			-117.00		7.6574E+00
			-116.50		7.7283E+00
			-116.00		7.8098E+00
			-115.50		7.9101E+00
			-115.00		7.9962E+00
			-114.50		8.0531E+00
			-114.00		8.1208E+00
			-113.50		8.2036E+00
			-113.00		8.2873E+00
			-112.50		8.3818E+00
			-112.00		8.4678E+00
			-111.50		8.5364E+00
			-111.00		8.6185E+00
			-110.50		8.7282E+00
			-110.00		8.8266E+00
			-109.50		8.8876E+00
			-109.00		8.9578E+00
			-108.50		9.0569E+00
			-108.00		9.1442E+00
			-107.50		9.2137E+00
			-107.00		9.3073E+00
			-106.50		9.4498E+00
			-106.00		9.5868E+00
			-105.50		9.6861E+00
			-105.00		9.7944E+00
			-104.50		9.9444E+00
			-104.00		10.084E+00
			-103.50		10.181E+00
			-103.00		10.286E+00
			-102.50		10.426E+00
			-102.00		10.552E+00
			-101.50		10.646E+00
			-101.00		10.751E+00
			-100.50		10.888E+00
			-100.00		11.024E+00
			-99.50		11.162E+00
			-99.00		11.326E+00
			-98.50		11.526E+00
			-98.00		11.695E+00
			-97.50		11.804E+00
			-97.00		11.937E+00
			-96.50		12.114E+00
			-96.00		12.287E+00
			-95.50		12.484E+00
			-95.00		12.697E+00
			-94.50		12.874E+00
			-94.00		13.047E+00
			-93.50		13.236E+00
			-93.00		13.422E+00
			-92.50		13.635E+00
			-92.00		13.879E+00
			-91.50		14.102E+00
			-91.00		14.303E+00
			-90.50		14.539E+00
			-90.00		14.797E+00
			-89.50		15.111E+00
			-89.00		15.426E+00
			-88.50		15.667E+00
			-88.00		15.911E+00
			-87.50		16.194E+00
			-87.00		16.474E+00
			-86.50		16.812E+00
			-86.00		17.208E+00
			-85.50		17.642E+00
			-85.00		18.057E+00
			-84.50		18.466E+00
			-84.00		18.906E+00
			-83.50		19.438E+00
			-83.00		19.997E+00
			-82.50		20.592E+00
			-82.00		21.240E+00
			-81.50		21.974E+00
			-81.00		22.750E+00
			-80.50		23.686E+00
			-80.00		24.749E+00
			-79.50		26.093E+00
			-79.00		27.615E+00
			-78.50		29.641E+00
			-78.00		32.026E+00
			-77.50		35.188E+00
			-77.00		38.978E+00
			-76.50		44.320E+00
			-76.00		51.035E+00
			-75.50		60.691E+00
			-75.00		71.872E+00
			-74.50		86.176E+00
			-74.00		101.86E+00
			-73.50		119.81E+00
			-73.00		138.63E+00
			-72.50		158.54E+00
			-72.00		178.70E+00
			-71.50		198.82E+00
			-71.00		218.68E+00
			-70.50		237.65E+00
			-70.00		255.92E+00
			-69.50		271.93E+00
			-69.00		286.43E+00
			-68.50		297.84E+00
			-68.00		307.96E+00
			-67.50		315.94E+00
			-67.00		322.63E+00
			-66.50		327.27E+00
			-66.00		331.32E+00
			-65.50		335.09E+00
			-65.00		338.51E+00
			-64.50		341.21E+00
			-64.00		343.64E+00
			-63.50		345.67E+00
			-63.00		347.64E+00
			-62.50		349.67E+00
			-62.00		351.70E+00
			-61.50		353.35E+00
			-61.00		354.60E+00
			-60.50		355.67E+00
			-60.00		356.97E+00
			-59.50		358.49E+00
			-59.00		360.02E+00
			-58.50		361.22E+00
			-58.00		362.15E+00
			-57.50		363.20E+00
			-57.00		364.40E+00
			-56.50		365.42E+00
			-56.00		366.39E+00
			-55.50		367.47E+00
			-55.00		368.46E+00
			-54.50		369.41E+00
			-54.00		370.44E+00
			-53.50		371.39E+00
			-53.00		372.23E+00
			-52.50		373.25E+00
			-52.00		374.36E+00
			-51.50		375.43E+00
			-51.00		376.57E+00
			-50.50		377.60E+00
			-50.00		378.45E+00
			-49.50		379.27E+00
			-49.00		380.20E+00
			-48.50		381.13E+00
			-48.00		381.94E+00
			-47.50		382.59E+00
			-47.00		383.35E+00
			-46.50		384.60E+00
			-46.00		385.79E+00
			-45.50		386.63E+00
			-45.00		387.46E+00
			-44.50		388.20E+00
			-44.00		389.00E+00
			-43.50		389.97E+00
			-43.00		390.84E+00
			-42.50		391.62E+00
			-42.00		392.48E+00
			-41.50		393.33E+00
			-41.00		394.18E+00
			-40.50		395.31E+00
			-40.00		396.49E+00
			-39.50		397.35E+00
			-39.00		397.93E+00
			-38.50		398.45E+00
			-38.00		399.14E+00
			-37.50		400.00E+00
			-37.00		400.90E+00
			-36.50		401.98E+00
			-36.00		402.92E+00
			-35.50		403.40E+00
			-35.00		403.98E+00
			-34.50		404.92E+00
			-34.00		405.83E+00
			-33.50		406.60E+00
			-33.00		407.22E+00
			-32.50		407.60E+00
			-32.00		408.14E+00
			-31.50		408.90E+00
			-31.00		409.54E+00
			-30.50		410.22E+00
			-30.00		411.16E+00
			-29.50		412.02E+00
			-29.00		412.52E+00
			-28.50		412.89E+00
			-28.00		413.39E+00
			-27.50		414.11E+00
			-27.00		414.99E+00
			-26.50		416.02E+00
			-26.00		416.72E+00
			-25.50		417.07E+00
			-25.00		417.66E+00
			-24.50		418.49E+00
			-24.00		419.17E+00
			-23.50		419.60E+00
			-23.00		420.09E+00
			-22.50		420.49E+00
			-22.00		420.74E+00
			-21.50		421.10E+00
			-21.00		421.66E+00
			-20.50		422.44E+00
			-20.00		423.15E+00
			-19.50		423.73E+00
			-19.00		424.27E+00
			-18.50		424.65E+00
			-18.00		425.01E+00
			-17.50		425.30E+00
			-17.00		425.55E+00
			-16.50		426.14E+00
			-16.00		426.88E+00
			-15.50		427.36E+00
			-15.00		427.73E+00
			-14.50		428.08E+00
			-14.00		428.35E+00
			-13.50		428.56E+00
			-13.00		428.93E+00
			-12.50		429.24E+00
			-12.00		429.33E+00
			-11.50		429.48E+00
			-11.00		429.78E+00
			-10.50		429.97E+00
			-10.00		430.13E+00
			-9.50		430.27E+00
			-9.00		430.45E+00
			-8.50		430.90E+00
			-8.00		431.35E+00
			-7.50		431.32E+00
			-7.00		431.23E+00
			-6.50		431.54E+00
			-6.00		431.95E+00
			-5.50		432.23E+00
			-5.00		432.36E+00
			-4.50		432.27E+00
			-4.00		432.30E+00
			-3.50		432.48E+00
			-3.00		432.52E+00
			-2.50		432.54E+00
			-2.00		432.69E+00
			-1.50		432.77E+00
			-1.00		432.87E+00
			-0.50		433.15E+00
			0.00		433.32E+00
			0.50		433.15E+00
			1.00		432.87E+00
			1.50		432.77E+00
			2.00		432.69E+00
			2.50		432.54E+00
			3.00		432.52E+00
			3.50		432.48E+00
			4.00		432.30E+00
			4.50		432.27E+00
			5.00		432.36E+00
			5.50		432.23E+00
			6.00		431.95E+00
			6.50		431.54E+00
			7.00		431.23E+00
			7.50		431.32E+00
			8.00		431.35E+00
			8.50		430.90E+00
			9.00		430.45E+00
			9.50		430.27E+00
			10.00		430.13E+00
			10.50		429.97E+00
			11.00		429.78E+00
			11.50		429.48E+00
			12.00		429.33E+00
			12.50		429.24E+00
			13.00		428.93E+00
			13.50		428.56E+00
			14.00		428.35E+00
			14.50		428.08E+00
			15.00		427.73E+00
			15.50		427.36E+00
			16.00		426.88E+00
			16.50		426.14E+00
			17.00		425.55E+00
			17.50		425.30E+00
			18.00		425.01E+00
			18.50		424.65E+00
			19.00		424.27E+00
			19.50		423.73E+00
			20.00		423.15E+00
			20.50		422.44E+00
			21.00		421.66E+00
			21.50		421.10E+00
			22.00		420.74E+00
			22.50		420.49E+00
			23.00		420.09E+00
			23.50		419.60E+00
			24.00		419.17E+00
			24.50		418.49E+00
			25.00		417.66E+00
			25.50		417.07E+00
			26.00		416.72E+00
			26.50		416.02E+00
			27.00		414.99E+00
			27.50		414.11E+00
			28.00		413.39E+00
			28.50		412.89E+00
			29.00		412.52E+00
			29.50		412.02E+00
			30.00		411.16E+00
			30.50		410.22E+00
			31.00		409.54E+00
			31.50		408.90E+00
			32.00		408.14E+00
			32.50		407.60E+00
			33.00		407.22E+00
			33.50		406.60E+00
			34.00		405.83E+00
			34.50		404.92E+00
			35.00		403.98E+00
			35.50		403.40E+00
			36.00		402.92E+00
			36.50		401.98E+00
			37.00		400.90E+00
			37.50		400.00E+00
			38.00		399.14E+00
			38.50		398.45E+00
			39.00		397.93E+00
			39.50		397.35E+00
			40.00		396.49E+00
			40.50		395.31E+00
			41.00		394.18E+00
			41.50		393.33E+00
			42.00		392.48E+00
			42.50		391.62E+00
			43.00		390.84E+00
			43.50		389.97E+00
			44.00		389.00E+00
			44.50		388.20E+00
			45.00		387.46E+00
			45.50		386.63E+00
			46.00		385.79E+00
			46.50		384.60E+00
			47.00		383.35E+00
			47.50		382.59E+00
			48.00		381.94E+00
			48.50		381.13E+00
			49.00		380.20E+00
			49.50		379.27E+00
			50.00		378.45E+00
			50.50		377.60E+00
			51.00		376.57E+00
			51.50		375.43E+00
			52.00		374.36E+00
			52.50		373.25E+00
			53.00		372.23E+00
			53.50		371.39E+00
			54.00		370.44E+00
			54.50		369.41E+00
			55.00		368.46E+00
			55.50		367.47E+00
			56.00		366.39E+00
			56.50		365.42E+00
			57.00		364.40E+00
			57.50		363.20E+00
			58.00		362.15E+00
			58.50		361.22E+00
			59.00		360.02E+00
			59.50		358.49E+00
			60.00		356.97E+00
			60.50		355.67E+00
			61.00		354.60E+00
			61.50		353.35E+00
			62.00		351.70E+00
			62.50		349.67E+00
			63.00		347.64E+00
			63.50		345.67E+00
			64.00		343.64E+00
			64.50		341.21E+00
			65.00		338.51E+00
			65.50		335.09E+00
			66.00		331.32E+00
			66.50		327.27E+00
			67.00		322.63E+00
			67.50		315.94E+00
			68.00		307.96E+00
			68.50		297.84E+00
			69.00		286.43E+00
			69.50		271.93E+00
			70.00		255.92E+00
			70.50		237.65E+00
			71.00		218.68E+00
			71.50		198.82E+00
			72.00		178.70E+00
			72.50		158.54E+00
			73.00		138.63E+00
			73.50		119.81E+00
			74.00		101.86E+00
			74.50		86.176E+00
			75.00		71.872E+00
			75.50		60.691E+00
			76.00		51.035E+00
			76.50		44.320E+00
			77.00		38.978E+00
			77.50		35.188E+00
			78.00		32.026E+00
			78.50		29.641E+00
			79.00		27.615E+00
			79.50		26.093E+00
			80.00		24.749E+00
			80.50		23.686E+00
			81.00		22.750E+00
			81.50		21.974E+00
			82.00		21.240E+00
			82.50		20.592E+00
			83.00		19.997E+00
			83.50		19.438E+00
			84.00		18.906E+00
			84.50		18.466E+00
			85.00		18.057E+00
			85.50		17.642E+00
			86.00		17.208E+00
			86.50		16.812E+00
			87.00		16.474E+00
			87.50		16.194E+00
			88.00		15.911E+00
			88.50		15.667E+00
			89.00		15.426E+00
			89.50		15.111E+00
			90.00		14.797E+00
			90.50		14.539E+00
			91.00		14.303E+00
			91.50		14.102E+00
			92.00		13.879E+00
			92.50		13.635E+00
			93.00		13.422E+00
			93.50		13.236E+00
			94.00		13.047E+00
			94.50		12.874E+00
			95.00		12.697E+00
			95.50		12.484E+00
			96.00		12.287E+00
			96.50		12.114E+00
			97.00		11.937E+00
			97.50		11.804E+00
			98.00		11.695E+00
			98.50		11.526E+00
			99.00		11.326E+00
			99.50		11.162E+00
			100.00		11.024E+00
			100.50		10.888E+00
			101.00		10.751E+00
			101.50		10.646E+00
			102.00		10.552E+00
			102.50		10.426E+00
			103.00		10.286E+00
			103.50		10.181E+00
			104.00		10.084E+00
			104.50		9.9444E+00
			105.00		9.7944E+00
			105.50		9.6861E+00
			106.00		9.5868E+00
			106.50		9.4498E+00
			107.00		9.3073E+00
			107.50		9.2137E+00
			108.00		9.1442E+00
			108.50		9.0569E+00
			109.00		8.9578E+00
			109.50		8.8876E+00
			110.00		8.8266E+00
			110.50		8.7282E+00
			111.00		8.6185E+00
			111.50		8.5364E+00
			112.00		8.4678E+00
			112.50		8.3818E+00
			113.00		8.2873E+00
			113.50		8.2036E+00
			114.00		8.1208E+00
			114.50		8.0531E+00
			115.00		7.9962E+00
			115.50		7.9101E+00
			116.00		7.8098E+00
			116.50		7.7283E+00
			117.00		7.6574E+00
			117.50		7.6007E+00
			118.00		7.5521E+00
			118.50		7.4818E+00
			119.00		7.3858E+00
			119.50		7.3044E+00
			120.00		7.1425E+00
		END_DATA
	END_SCAN  1
	BEGIN_SCAN  2
		TASK_NAME=tba PDD Profiles
		PROGRAM=WaterTankScans
		COMMENT=Gemelli
		MEAS_DATE=08-Feb-2021 09:38:10
		LINAC=MRIdian
		MODALITY=X
		ISOCENTER=900.00
		INPLANE_AXIS=Y
		CROSSPLANE_AXIS=X
		DEPTH_AXIS=Depth
		INPLANE_AXIS_DIR=TARGET_GUN
		CROSSPLANE_AXIS_DIR=LEFT_RIGHT
		DEPTH_AXIS_DIR=UP_DOWN
		ENERGY=6.00
		NOMINAL_DMAX=15.00
		SSD=850.00
		SCD=450.00
		WEDGE_ANGLE=0.00
		FIELD_INPLANE=149.40
		FIELD_CROSSPLANE=149.40
		FIELD_TYPE=RECTANGULAR
		GANTRY=0.00
		GANTRY_UPRIGHT_POSITION=0
		GANTRY_ROTATION=CW
		COLL_ANGLE=0.00
		COLL_OFFSET_INPLANE=0.00
		COLL_OFFSET_CROSSPLANE=0.00
		SCAN_DEVICE=BeamScan
		SCAN_DEVICE_SETUP=BARA_LEFT_RIGHT
		ELECTROMETER=BeamScan
		RANGE_FIELD=LOW
		RANGE_REFERENCE=MEDIUM
		DETECTOR=THIMBLE_CHAMBER
		DETECTOR_RADIUS=2.40
		DETECTOR_NAME=A28MR
		DETECTOR_SN=-
		DETECTOR_CALIBRATION=588000000.00
		DETECTOR_IS_CALIBRATED=0
		DETECTOR_REFERENCE=THIMBLE_CHAMBER
		DETECTOR_REFERENCE_RADIUS=2.75
		DETECTOR_REFERENCE_NAME=A28MR
		DETECTOR_REFERENCE_SN=—
		DETECTOR_REFERENCE_IS_CALIBRATED=0
		DETECTOR_REFERENCE_CALIBRATION=303000000.00
		DETECTOR_HV=300.0
		DETECTOR_REFERENCE_HV=300.0
		DETECTOR_ORIENTATION=HORIZONTAL
		FILTER=FFF
		SCAN_SPEED_PROFILE=10.00
		SCAN_PROF_SPEED_DEP=DEPTH
		SCAN_SPEED_PDD=0.00
		SCAN_PDD_SPEED_DEP=ENERGY
		DETECTOR_TYPE=A28MR
		REF_FIELD_DEPTH=220.00
		REF_FIELD_DEFINED=ISOCENTER
		REF_FIELD_INPLANE=100.00
		REF_FIELD_CROSSPLANE=100.00
		REF_SCAN_POSITIONS=-85.00;-84.00;-83.00;-82.00;-81.00;-80.00;-79.00;-78.00;-77.00;-76.00;-75.00;-74.00;-73.00;-72.00;-71.00;-70.00;-69.00;-68.00;-67.00;-66.00;-65.00;-64.00;-63.00;-62.00;-61.00;-60.00;-59.00;-58.00;-57.00;-56.00;-55.00;-54.00;-53.00;-52.00;-51.00;-50.00;-49.00;-48.00;-47.00;-46.00;-45.00;-44.00;-43.00;-42.00;-41.00;-40.00;-39.00;-38.00;-37.00;-36.00;-35.00;-34.00;-33.00;-32.00;-31.00;-30.00;-29.00;-28.00;-27.00;-26.00;-25.00;-24.00;-23.00;-22.00;-21.00;-20.00;-19.00;-18.00;-17.00;-16.00;-15.00;-14.00;-13.00;-12.00;-11.00;-10.00;-9.00;-8.00;-7.00;-6.00;-5.00;-4.00;-3.00;-2.00;-1.00;0.00;1.00;2.00;3.00;4.00;5.00;6.00;7.00;8.00;9.00;10.00;11.00;12.00;13.00;14.00;15.00;16.00;17.00;18.00;19.00;20.00;21.00;22.00;23.00;24.00;25.00;26.00;27.00;28.00;29.00;30.00;31.00;32.00;33.00;34.00;35.00;36.00;37.00;38.00;39.00;40.00;41.00;42.00;43.00;44.00;45.00;46.00;47.00;48.00;49.00;50.00;51.00;52.00;53.00;54.00;55.00;56.00;57.00;58.00;59.00;60.00;61.00;62.00;63.00;64.00;65.00;66.00;67.00;68.00;69.00;70.00;71.00;72.00;73.00;74.00;75.00;76.00;77.00;78.00;79.00;80.00;81.00;82.00;83.00;84.00;85.00;
		REF_OVERSCAN_FACTOR=1.00
		SCAN_CURVETYPE=CROSSPLANE_PROFILE
		SCAN_DEPTH=55.00
		SCAN_OFFAXIS_INPLANE=0.00
		SCAN_OFFAXIS_CROSSPLANE=0.00
		SCAN_ANGLE=0.00
		SCAN_DIAGONAL=NOT_DIAGONAL
		SCAN_DIRECTION=POSITIVE
		MEAS_MEDIUM=WATER
		MEAS_PRESET=MEAS_CONTINUOUS_REFERENCE_SCAN
		MEAS_TIME=0.100
		MEAS_UNIT=A.U.
		INCLINATION_ANGLE=0.00
		PRESSURE=1013.25
		TEMPERATURE=20.00
		NORM_TEMPERATURE=20.00
		CORRECTION_FACTOR=1.0000
		EXPECTED_MAX_DOSE_RATE=3.00
		EPOM_DEPTH_SHIFT=0.2
		EPOM_MODE=SHIFT_PROTOCOL
		CORRECTIONS=CAX_CORR;INTERPOLATED_CORR;SYMMETRY_CORR;
		BEGIN_DATA
			-120.00		9.5641E+00
			-119.50		9.5609E+00
			-119.00		9.6594E+00
			-118.50		9.7850E+00
			-118.00		9.9138E+00
			-117.50		10.037E+00
			-117.00		10.159E+00
			-116.50		10.333E+00
			-116.00		10.500E+00
			-115.50		10.572E+00
			-115.00		10.652E+00
			-114.50		10.754E+00
			-114.00		10.849E+00
			-113.50		10.972E+00
			-113.00		11.104E+00
			-112.50		11.278E+00
			-112.00		11.444E+00
			-111.50		11.550E+00
			-111.00		11.664E+00
			-110.50		11.818E+00
			-110.00		11.966E+00
			-109.50		12.101E+00
			-109.00		12.244E+00
			-108.50		12.435E+00
			-108.00		12.622E+00
			-107.50		12.740E+00
			-107.00		12.854E+00
			-106.50		13.018E+00
			-106.00		13.189E+00
			-105.50		13.327E+00
			-105.00		13.467E+00
			-104.50		13.717E+00
			-104.00		13.967E+00
			-103.50		14.168E+00
			-103.00		14.368E+00
			-102.50		14.483E+00
			-102.00		14.600E+00
			-101.50		14.847E+00
			-101.00		15.095E+00
			-100.50		15.319E+00
			-100.00		15.543E+00
			-99.50		15.801E+00
			-99.00		16.062E+00
			-98.50		16.318E+00
			-98.00		16.569E+00
			-97.50		16.786E+00
			-97.00		17.003E+00
			-96.50		17.238E+00
			-96.00		17.482E+00
			-95.50		17.788E+00
			-95.00		18.091E+00
			-94.50		18.432E+00
			-94.00		18.775E+00
			-93.50		19.067E+00
			-93.00		19.365E+00
			-92.50		19.736E+00
			-92.00		20.107E+00
			-91.50		20.455E+00
			-91.00		20.809E+00
			-90.50		21.252E+00
			-90.00		21.690E+00
			-89.50		22.072E+00
			-89.00		22.461E+00
			-88.50		22.958E+00
			-88.00		23.460E+00
			-87.50		23.976E+00
			-87.00		24.491E+00
			-86.50		25.080E+00
			-86.00		25.691E+00
			-85.50		26.403E+00
			-85.00		27.106E+00
			-84.50		27.807E+00
			-84.00		28.523E+00
			-83.50		29.576E+00
			-83.00		30.657E+00
			-82.50		31.923E+00
			-82.00		33.234E+00
			-81.50		35.144E+00
			-81.00		37.110E+00
			-80.50		39.836E+00
			-80.00		42.675E+00
			-79.50		47.226E+00
			-79.00		51.962E+00
			-78.50		59.602E+00
			-78.00		67.559E+00
			-77.50		78.681E+00
			-77.00		90.042E+00
			-76.50		103.42E+00
			-76.00		116.94E+00
			-75.50		132.01E+00
			-75.00		147.20E+00
			-74.50		162.73E+00
			-74.00		178.22E+00
			-73.50		192.80E+00
			-73.00		207.18E+00
			-72.50		219.68E+00
			-72.00		232.04E+00
			-71.50		241.33E+00
			-71.00		250.32E+00
			-70.50		256.45E+00
			-70.00		262.29E+00
			-69.50		266.42E+00
			-69.00		270.39E+00
			-68.50		273.27E+00
			-68.00		276.10E+00
			-67.50		278.76E+00
			-67.00		281.30E+00
			-66.50		283.13E+00
			-66.00		284.99E+00
			-65.50		286.96E+00
			-65.00		288.82E+00
			-64.50		290.02E+00
			-64.00		291.23E+00
			-63.50		292.61E+00
			-63.00		293.99E+00
			-62.50		295.13E+00
			-62.00		296.22E+00
			-61.50		297.51E+00
			-61.00		298.82E+00
			-60.50		299.82E+00
			-60.00		300.78E+00
			-59.50		301.53E+00
			-59.00		302.28E+00
			-58.50		303.43E+00
			-58.00		304.60E+00
			-57.50		305.73E+00
			-57.00		306.85E+00
			-56.50		307.49E+00
			-56.00		308.15E+00
			-55.50		309.29E+00
			-55.00		310.40E+00
			-54.50		311.27E+00
			-54.00		312.17E+00
			-53.50		312.96E+00
			-53.00		313.67E+00
			-52.50		314.33E+00
			-52.00		315.02E+00
			-51.50		315.96E+00
			-51.00		316.89E+00
			-50.50		317.73E+00
			-50.00		318.60E+00
			-49.50		319.82E+00
			-49.00		320.99E+00
			-48.50		321.56E+00
			-48.00		322.10E+00
			-47.50		322.83E+00
			-47.00		323.60E+00
			-46.50		324.30E+00
			-46.00		324.96E+00
			-45.50		325.79E+00
			-45.00		326.65E+00
			-44.50		327.54E+00
			-44.00		328.43E+00
			-43.50		329.24E+00
			-43.00		330.04E+00
			-42.50		330.79E+00
			-42.00		331.54E+00
			-41.50		332.15E+00
			-41.00		332.76E+00
			-40.50		333.69E+00
			-40.00		334.66E+00
			-39.50		335.47E+00
			-39.00		336.23E+00
			-38.50		336.53E+00
			-38.00		336.83E+00
			-37.50		337.50E+00
			-37.00		338.21E+00
			-36.50		338.99E+00
			-36.00		339.76E+00
			-35.50		340.15E+00
			-35.00		340.53E+00
			-34.50		341.36E+00
			-34.00		342.23E+00
			-33.50		342.93E+00
			-33.00		343.62E+00
			-32.50		343.85E+00
			-32.00		344.09E+00
			-31.50		344.86E+00
			-31.00		345.68E+00
			-30.50		346.33E+00
			-30.00		346.90E+00
			-29.50		347.42E+00
			-29.00		347.98E+00
			-28.50		348.30E+00
			-28.00		348.58E+00
			-27.50		349.20E+00
			-27.00		349.84E+00
			-26.50		350.12E+00
			-26.00		350.42E+00
			-25.50		351.16E+00
			-25.00		351.92E+00
			-24.50		352.65E+00
			-24.00		353.35E+00
			-23.50		353.57E+00
			-23.00		353.78E+00
			-22.50		354.21E+00
			-22.00		354.68E+00
			-21.50		355.43E+00
			-21.00		356.15E+00
			-20.50		356.40E+00
			-20.00		356.69E+00
			-19.50		357.11E+00
			-19.00		357.53E+00
			-18.50		357.69E+00
			-18.00		357.86E+00
			-17.50		358.35E+00
			-17.00		358.84E+00
			-16.50		359.06E+00
			-16.00		359.30E+00
			-15.50		359.74E+00
			-15.00		360.16E+00
			-14.50		360.43E+00
			-14.00		360.69E+00
			-13.50		360.97E+00
			-13.00		361.25E+00
			-12.50		361.63E+00
			-12.00		361.99E+00
			-11.50		361.96E+00
			-11.00		361.91E+00
			-10.50		361.96E+00
			-10.00		362.04E+00
			-9.50		362.30E+00
			-9.00		362.52E+00
			-8.50		362.58E+00
			-8.00		362.68E+00
			-7.50		363.22E+00
			-7.00		363.70E+00
			-6.50		363.67E+00
			-6.00		363.65E+00
			-5.50		363.79E+00
			-5.00		363.94E+00
			-4.50		364.05E+00
			-4.00		364.17E+00
			-3.50		364.29E+00
			-3.00		364.37E+00
			-2.50		364.27E+00
			-2.00		364.15E+00
			-1.50		364.03E+00
			-1.00		363.96E+00
			-0.50		364.20E+00
			0.00		364.39E+00
			0.50		364.20E+00
			1.00		363.96E+00
			1.50		364.03E+00
			2.00		364.15E+00
			2.50		364.27E+00
			3.00		364.37E+00
			3.50		364.29E+00
			4.00		364.17E+00
			4.50		364.05E+00
			5.00		363.94E+00
			5.50		363.79E+00
			6.00		363.65E+00
			6.50		363.67E+00
			7.00		363.70E+00
			7.50		363.22E+00
			8.00		362.68E+00
			8.50		362.58E+00
			9.00		362.52E+00
			9.50		362.30E+00
			10.00		362.04E+00
			10.50		361.96E+00
			11.00		361.91E+00
			11.50		361.96E+00
			12.00		361.99E+00
			12.50		361.63E+00
			13.00		361.25E+00
			13.50		360.97E+00
			14.00		360.69E+00
			14.50		360.43E+00
			15.00		360.16E+00
			15.50		359.74E+00
			16.00		359.30E+00
			16.50		359.06E+00
			17.00		358.84E+00
			17.50		358.35E+00
			18.00		357.86E+00
			18.50		357.69E+00
			19.00		357.53E+00
			19.50		357.11E+00
			20.00		356.69E+00
			20.50		356.40E+00
			21.00		356.15E+00
			21.50		355.43E+00
			22.00		354.68E+00
			22.50		354.21E+00
			23.00		353.78E+00
			23.50		353.57E+00
			24.00		353.35E+00
			24.50		352.65E+00
			25.00		351.92E+00
			25.50		351.16E+00
			26.00		350.42E+00
			26.50		350.12E+00
			27.00		349.84E+00
			27.50		349.20E+00
			28.00		348.58E+00
			28.50		348.30E+00
			29.00		347.98E+00
			29.50		347.42E+00
			30.00		346.90E+00
			30.50		346.33E+00
			31.00		345.68E+00
			31.50		344.86E+00
			32.00		344.09E+00
			32.50		343.85E+00
			33.00		343.62E+00
			33.50		342.93E+00
			34.00		342.23E+00
			34.50		341.36E+00
			35.00		340.53E+00
			35.50		340.15E+00
			36.00		339.76E+00
			36.50		338.99E+00
			37.00		338.21E+00
			37.50		337.50E+00
			38.00		336.83E+00
			38.50		336.53E+00
			39.00		336.23E+00
			39.50		335.47E+00
			40.00		334.66E+00
			40.50		333.69E+00
			41.00		332.76E+00
			41.50		332.15E+00
			42.00		331.54E+00
			42.50		330.79E+00
			43.00		330.04E+00
			43.50		329.24E+00
			44.00		328.43E+00
			44.50		327.54E+00
			45.00		326.65E+00
			45.50		325.79E+00
			46.00		324.96E+00
			46.50		324.30E+00
			47.00		323.60E+00
			47.50		322.83E+00
			48.00		322.10E+00
			48.50		321.56E+00
			49.00		320.99E+00
			49.50		319.82E+00
			50.00		318.60E+00
			50.50		317.73E+00
			51.00		316.89E+00
			51.50		315.96E+00
			52.00		315.02E+00
			52.50		314.33E+00
			53.00		313.67E+00
			53.50		312.96E+00
			54.00		312.17E+00
			54.50		311.27E+00
			55.00		310.40E+00
			55.50		309.29E+00
			56.00		308.15E+00
			56.50		307.49E+00
			57.00		306.85E+00
			57.50		305.73E+00
			58.00		304.60E+00
			58.50		303.43E+00
			59.00		302.28E+00
			59.50		301.53E+00
			60.00		300.78E+00
			60.50		299.82E+00
			61.00		298.82E+00
			61.50		297.51E+00
			62.00		296.22E+00
			62.50		295.13E+00
			63.00		293.99E+00
			63.50		292.61E+00
			64.00		291.23E+00
			64.50		290.02E+00
			65.00		288.82E+00
			65.50		286.96E+00
			66.00		284.99E+00
			66.50		283.13E+00
			67.00		281.30E+00
			67.50		278.76E+00
			68.00		276.10E+00
			68.50		273.27E+00
			69.00		270.39E+00
			69.50		266.42E+00
			70.00		262.29E+00
			70.50		256.45E+00
			71.00		250.32E+00
			71.50		241.33E+00
			72.00		232.04E+00
			72.50		219.68E+00
			73.00		207.18E+00
			73.50		192.80E+00
			74.00		178.22E+00
			74.50		162.73E+00
			75.00		147.20E+00
			75.50		132.01E+00
			76.00		116.94E+00
			76.50		103.42E+00
			77.00		90.042E+00
			77.50		78.681E+00
			78.00		67.559E+00
			78.50		59.602E+00
			79.00		51.962E+00
			79.50		47.226E+00
			80.00		42.675E+00
			80.50		39.836E+00
			81.00		37.110E+00
			81.50		35.144E+00
			82.00		33.234E+00
			82.50		31.923E+00
			83.00		30.657E+00
			83.50		29.576E+00
			84.00		28.523E+00
			84.50		27.807E+00
			85.00		27.106E+00
			85.50		26.403E+00
			86.00		25.691E+00
			86.50		25.080E+00
			87.00		24.491E+00
			87.50		23.976E+00
			88.00		23.460E+00
			88.50		22.958E+00
			89.00		22.461E+00
			89.50		22.072E+00
			90.00		21.690E+00
			90.50		21.252E+00
			91.00		20.809E+00
			91.50		20.455E+00
			92.00		20.107E+00
			92.50		19.736E+00
			93.00		19.365E+00
			93.50		19.067E+00
			94.00		18.775E+00
			94.50		18.432E+00
			95.00		18.091E+00
			95.50		17.788E+00
			96.00		17.482E+00
			96.50		17.238E+00
			97.00		17.003E+00
			97.50		16.786E+00
			98.00		16.569E+00
			98.50		16.318E+00
			99.00		16.062E+00
			99.50		15.801E+00
			100.00		15.543E+00
			100.50		15.319E+00
			101.00		15.095E+00
			101.50		14.847E+00
			102.00		14.600E+00
			102.50		14.483E+00
			103.00		14.368E+00
			103.50		14.168E+00
			104.00		13.967E+00
			104.50		13.717E+00
			105.00		13.467E+00
			105.50		13.327E+00
			106.00		13.189E+00
			106.50		13.018E+00
			107.00		12.854E+00
			107.50		12.740E+00
			108.00		12.622E+00
			108.50		12.435E+00
			109.00		12.244E+00
			109.50		12.101E+00
			110.00		11.966E+00
			110.50		11.818E+00
			111.00		11.664E+00
			111.50		11.550E+00
			112.00		11.444E+00
			112.50		11.278E+00
			113.00		11.104E+00
			113.50		10.972E+00
			114.00		10.849E+00
			114.50		10.754E+00
			115.00		10.652E+00
			115.50		10.572E+00
			116.00		10.500E+00
			116.50		10.333E+00
			117.00		10.159E+00
			117.50		10.037E+00
			118.00		9.9138E+00
			118.50		9.7850E+00
			119.00		9.6594E+00
			119.50		9.5609E+00
			120.00		9.5641E+00
		END_DATA
	END_SCAN  2
	BEGIN_SCAN  3
		TASK_NAME=tba PDD Profiles
		PROGRAM=WaterTankScans
		COMMENT=Gemelli
		MEAS_DATE=08-Feb-2021 09:38:10
		LINAC=MRIdian
		MODALITY=X
		ISOCENTER=900.00
		INPLANE_AXIS=Y
		CROSSPLANE_AXIS=X
		DEPTH_AXIS=Depth
		INPLANE_AXIS_DIR=TARGET_GUN
		CROSSPLANE_AXIS_DIR=LEFT_RIGHT
		DEPTH_AXIS_DIR=UP_DOWN
		ENERGY=6.00
		NOMINAL_DMAX=15.00
		SSD=850.00
		SCD=450.00
		WEDGE_ANGLE=0.00
		FIELD_INPLANE=149.40
		FIELD_CROSSPLANE=149.40
		FIELD_TYPE=RECTANGULAR
		GANTRY=0.00
		GANTRY_UPRIGHT_POSITION=0
		GANTRY_ROTATION=CW
		COLL_ANGLE=0.00
		COLL_OFFSET_INPLANE=0.00
		COLL_OFFSET_CROSSPLANE=0.00
		SCAN_DEVICE=BeamScan
		SCAN_DEVICE_SETUP=BARA_LEFT_RIGHT
		ELECTROMETER=BeamScan
		RANGE_FIELD=LOW
		RANGE_REFERENCE=MEDIUM
		DETECTOR=THIMBLE_CHAMBER
		DETECTOR_RADIUS=2.40
		DETECTOR_NAME=A28MR
		DETECTOR_SN=-
		DETECTOR_CALIBRATION=588000000.00
		DETECTOR_IS_CALIBRATED=0
		DETECTOR_REFERENCE=THIMBLE_CHAMBER
		DETECTOR_REFERENCE_RADIUS=2.75
		DETECTOR_REFERENCE_NAME=A28MR
		DETECTOR_REFERENCE_SN=—
		DETECTOR_REFERENCE_IS_CALIBRATED=0
		DETECTOR_REFERENCE_CALIBRATION=303000000.00
		DETECTOR_HV=300.0
		DETECTOR_REFERENCE_HV=300.0
		DETECTOR_ORIENTATION=HORIZONTAL
		FILTER=FFF
		SCAN_SPEED_PROFILE=10.00
		SCAN_PROF_SPEED_DEP=DEPTH
		SCAN_SPEED_PDD=0.00
		SCAN_PDD_SPEED_DEP=ENERGY
		DETECTOR_TYPE=A28MR
		REF_FIELD_DEPTH=220.00
		REF_FIELD_DEFINED=ISOCENTER
		REF_FIELD_INPLANE=100.00
		REF_FIELD_CROSSPLANE=100.00
		REF_SCAN_POSITIONS=-85.00;-84.00;-83.00;-82.00;-81.00;-80.00;-79.00;-78.00;-77.00;-76.00;-75.00;-74.00;-73.00;-72.00;-71.00;-70.00;-69.00;-68.00;-67.00;-66.00;-65.00;-64.00;-63.00;-62.00;-61.00;-60.00;-59.00;-58.00;-57.00;-56.00;-55.00;-54.00;-53.00;-52.00;-51.00;-50.00;-49.00;-48.00;-47.00;-46.00;-45.00;-44.00;-43.00;-42.00;-41.00;-40.00;-39.00;-38.00;-37.00;-36.00;-35.00;-34.00;-33.00;-32.00;-31.00;-30.00;-29.00;-28.00;-27.00;-26.00;-25.00;-24.00;-23.00;-22.00;-21.00;-20.00;-19.00;-18.00;-17.00;-16.00;-15.00;-14.00;-13.00;-12.00;-11.00;-10.00;-9.00;-8.00;-7.00;-6.00;-5.00;-4.00;-3.00;-2.00;-1.00;0.00;1.00;2.00;3.00;4.00;5.00;6.00;7.00;8.00;9.00;10.00;11.00;12.00;13.00;14.00;15.00;16.00;17.00;18.00;19.00;20.00;21.00;22.00;23.00;24.00;25.00;26.00;27.00;28.00;29.00;30.00;31.00;32.00;33.00;34.00;35.00;36.00;37.00;38.00;39.00;40.00;41.00;42.00;43.00;44.00;45.00;46.00;47.00;48.00;49.00;50.00;51.00;52.00;53.00;54.00;55.00;56.00;57.00;58.00;59.00;60.00;61.00;62.00;63.00;64.00;65.00;66.00;67.00;68.00;69.00;70.00;71.00;72.00;73.00;74.00;75.00;76.00;77.00;78.00;79.00;80.00;81.00;82.00;83.00;84.00;85.00;
		REF_OVERSCAN_FACTOR=1.00
		SCAN_CURVETYPE=CROSSPLANE_PROFILE
		SCAN_DEPTH=100.00
		SCAN_OFFAXIS_INPLANE=0.00
		SCAN_OFFAXIS_CROSSPLANE=0.00
		SCAN_ANGLE=0.00
		SCAN_DIAGONAL=NOT_DIAGONAL
		SCAN_DIRECTION=POSITIVE
		MEAS_MEDIUM=WATER
		MEAS_PRESET=MEAS_CONTINUOUS_REFERENCE_SCAN
		MEAS_TIME=0.100
		MEAS_UNIT=A.U.
		INCLINATION_ANGLE=0.00
		PRESSURE=1013.25
		TEMPERATURE=20.00
		NORM_TEMPERATURE=20.00
		CORRECTION_FACTOR=1.0000
		EXPECTED_MAX_DOSE_RATE=3.00
		EPOM_DEPTH_SHIFT=0.2
		EPOM_MODE=SHIFT_PROTOCOL
		CORRECTIONS=CAX_CORR;INTERPOLATED_CORR;SYMMETRY_CORR;
		BEGIN_DATA
			-120.00		12.186E+00
			-119.50		12.054E+00
			-119.00		12.196E+00
			-118.50		12.335E+00
			-118.00		12.460E+00
			-117.50		12.597E+00
			-117.00		12.750E+00
			-116.50		12.898E+00
			-116.00		13.070E+00
			-115.50		13.247E+00
			-115.00		13.375E+00
			-114.50		13.503E+00
			-114.00		13.679E+00
			-113.50		13.868E+00
			-113.00		14.080E+00
			-112.50		14.302E+00
			-112.00		14.483E+00
			-111.50		14.622E+00
			-111.00		14.732E+00
			-110.50		14.868E+00
			-110.00		15.063E+00
			-109.50		15.269E+00
			-109.00		15.506E+00
			-108.50		15.748E+00
			-108.00		15.951E+00
			-107.50		16.128E+00
			-107.00		16.280E+00
			-106.50		16.434E+00
			-106.00		16.653E+00
			-105.50		16.910E+00
			-105.00		17.167E+00
			-104.50		17.424E+00
			-104.00		17.701E+00
			-103.50		17.966E+00
			-103.00		18.196E+00
			-102.50		18.436E+00
			-102.00		18.712E+00
			-101.50		18.974E+00
			-101.00		19.193E+00
			-100.50		19.429E+00
			-100.00		19.733E+00
			-99.50		20.053E+00
			-99.00		20.340E+00
			-98.50		20.608E+00
			-98.00		20.892E+00
			-97.50		21.185E+00
			-97.00		21.540E+00
			-96.50		21.931E+00
			-96.00		22.317E+00
			-95.50		22.697E+00
			-95.00		23.035E+00
			-94.50		23.368E+00
			-94.00		23.752E+00
			-93.50		24.146E+00
			-93.00		24.561E+00
			-92.50		24.998E+00
			-92.00		25.452E+00
			-91.50		25.907E+00
			-91.00		26.388E+00
			-90.50		26.872E+00
			-90.00		27.370E+00
			-89.50		27.925E+00
			-89.00		28.576E+00
			-88.50		29.228E+00
			-88.00		29.889E+00
			-87.50		30.612E+00
			-87.00		31.502E+00
			-86.50		32.460E+00
			-86.00		33.605E+00
			-85.50		34.871E+00
			-85.00		36.392E+00
			-84.50		38.101E+00
			-84.00		40.331E+00
			-83.50		43.011E+00
			-83.00		46.619E+00
			-82.50		50.887E+00
			-82.00		56.681E+00
			-81.50		63.314E+00
			-81.00		71.306E+00
			-80.50		79.870E+00
			-80.00		89.475E+00
			-79.50		99.527E+00
			-79.00		110.06E+00
			-78.50		120.78E+00
			-78.00		131.67E+00
			-77.50		142.42E+00
			-77.00		152.58E+00
			-76.50		162.24E+00
			-76.00		170.80E+00
			-75.50		178.67E+00
			-75.00		185.18E+00
			-74.50		191.14E+00
			-74.00		195.86E+00
			-73.50		199.91E+00
			-73.00		203.01E+00
			-72.50		205.83E+00
			-72.00		208.15E+00
			-71.50		210.18E+00
			-71.00		212.04E+00
			-70.50		213.86E+00
			-70.00		215.51E+00
			-69.50		217.04E+00
			-69.00		218.38E+00
			-68.50		219.71E+00
			-68.00		220.86E+00
			-67.50		221.86E+00
			-67.00		222.89E+00
			-66.50		223.96E+00
			-66.00		224.80E+00
			-65.50		225.63E+00
			-65.00		226.79E+00
			-64.50		227.97E+00
			-64.00		228.99E+00
			-63.50		229.95E+00
			-63.00		230.57E+00
			-62.50		231.11E+00
			-62.00		231.84E+00
			-61.50		232.74E+00
			-61.00		233.65E+00
			-60.50		234.42E+00
			-60.00		235.08E+00
			-59.50		235.75E+00
			-59.00		236.46E+00
			-58.50		237.16E+00
			-58.00		237.74E+00
			-57.50		238.41E+00
			-57.00		239.28E+00
			-56.50		240.05E+00
			-56.00		240.64E+00
			-55.50		241.29E+00
			-55.00		242.13E+00
			-54.50		242.96E+00
			-54.00		243.52E+00
			-53.50		244.09E+00
			-53.00		244.93E+00
			-52.50		245.78E+00
			-52.00		246.48E+00
			-51.50		247.08E+00
			-51.00		247.58E+00
			-50.50		248.13E+00
			-50.00		248.85E+00
			-49.50		249.56E+00
			-49.00		250.27E+00
			-48.50		251.07E+00
			-48.00		251.87E+00
			-47.50		252.46E+00
			-47.00		252.83E+00
			-46.50		253.28E+00
			-46.00		253.85E+00
			-45.50		254.41E+00
			-45.00		255.02E+00
			-44.50		255.76E+00
			-44.00		256.42E+00
			-43.50		256.92E+00
			-43.00		257.43E+00
			-42.50		258.04E+00
			-42.00		258.67E+00
			-41.50		259.24E+00
			-41.00		259.62E+00
			-40.50		259.96E+00
			-40.00		260.46E+00
			-39.50		261.09E+00
			-39.00		261.78E+00
			-38.50		262.31E+00
			-38.00		262.64E+00
			-37.50		263.03E+00
			-37.00		263.57E+00
			-36.50		264.13E+00
			-36.00		264.51E+00
			-35.50		264.88E+00
			-35.00		265.54E+00
			-34.50		266.20E+00
			-34.00		266.53E+00
			-33.50		266.83E+00
			-33.00		267.28E+00
			-32.50		267.74E+00
			-32.00		268.18E+00
			-31.50		268.66E+00
			-31.00		269.16E+00
			-30.50		269.68E+00
			-30.00		270.22E+00
			-29.50		270.67E+00
			-29.00		271.10E+00
			-28.50		271.59E+00
			-28.00		271.91E+00
			-27.50		272.15E+00
			-27.00		272.41E+00
			-26.50		272.72E+00
			-26.00		273.08E+00
			-25.50		273.53E+00
			-25.00		274.03E+00
			-24.50		274.35E+00
			-24.00		274.60E+00
			-23.50		275.02E+00
			-23.00		275.55E+00
			-22.50		275.99E+00
			-22.00		276.26E+00
			-21.50		276.52E+00
			-21.00		276.55E+00
			-20.50		276.53E+00
			-20.00		276.93E+00
			-19.50		277.52E+00
			-19.00		277.89E+00
			-18.50		278.14E+00
			-18.00		278.36E+00
			-17.50		278.64E+00
			-17.00		279.03E+00
			-16.50		279.46E+00
			-16.00		279.70E+00
			-15.50		279.75E+00
			-15.00		279.74E+00
			-14.50		279.87E+00
			-14.00		280.21E+00
			-13.50		280.48E+00
			-13.00		280.61E+00
			-12.50		280.79E+00
			-12.00		281.07E+00
			-11.50		281.39E+00
			-11.00		281.58E+00
			-10.50		281.56E+00
			-10.00		281.42E+00
			-9.50		281.41E+00
			-9.00		281.60E+00
			-8.50		281.78E+00
			-8.00		282.03E+00
			-7.50		282.30E+00
			-7.00		282.51E+00
			-6.50		282.70E+00
			-6.00		282.76E+00
			-5.50		282.63E+00
			-5.00		282.54E+00
			-4.50		282.63E+00
			-4.00		282.86E+00
			-3.50		282.98E+00
			-3.00		283.00E+00
			-2.50		283.02E+00
			-2.00		283.01E+00
			-1.50		283.04E+00
			-1.00		283.20E+00
			-0.50		283.35E+00
			0.00		283.39E+00
			0.50		283.35E+00
			1.00		283.20E+00
			1.50		283.04E+00
			2.00		283.01E+00
			2.50		283.02E+00
			3.00		283.00E+00
			3.50		282.98E+00
			4.00		282.86E+00
			4.50		282.63E+00
			5.00		282.54E+00
			5.50		282.63E+00
			6.00		282.76E+00
			6.50		282.70E+00
			7.00		282.51E+00
			7.50		282.30E+00
			8.00		282.03E+00
			8.50		281.78E+00
			9.00		281.60E+00
			9.50		281.41E+00
			10.00		281.42E+00
			10.50		281.56E+00
			11.00		281.58E+00
			11.50		281.39E+00
			12.00		281.07E+00
			12.50		280.79E+00
			13.00		280.61E+00
			13.50		280.48E+00
			14.00		280.21E+00
			14.50		279.87E+00
			15.00		279.74E+00
			15.50		279.75E+00
			16.00		279.70E+00
			16.50		279.46E+00
			17.00		279.03E+00
			17.50		278.64E+00
			18.00		278.36E+00
			18.50		278.14E+00
			19.00		277.89E+00
			19.50		277.52E+00
			20.00		276.93E+00
			20.50		276.53E+00
			21.00		276.55E+00
			21.50		276.52E+00
			22.00		276.26E+00
			22.50		275.99E+00
			23.00		275.55E+00
			23.50		275.02E+00
			24.00		274.60E+00
			24.50		274.35E+00
			25.00		274.03E+00
			25.50		273.53E+00
			26.00		273.08E+00
			26.50		272.72E+00
			27.00		272.41E+00
			27.50		272.15E+00
			28.00		271.91E+00
			28.50		271.59E+00
			29.00		271.10E+00
			29.50		270.67E+00
			30.00		270.22E+00
			30.50		269.68E+00
			31.00		269.16E+00
			31.50		268.66E+00
			32.00		268.18E+00
			32.50		267.74E+00
			33.00		267.28E+00
			33.50		266.83E+00
			34.00		266.53E+00
			34.50		266.20E+00
			35.00		265.54E+00
			35.50		264.88E+00
			36.00		264.51E+00
			36.50		264.13E+00
			37.00		263.57E+00
			37.50		263.03E+00
			38.00		262.64E+00
			38.50		262.31E+00
			39.00		261.78E+00
			39.50		261.09E+00
			40.00		260.46E+00
			40.50		259.96E+00
			41.00		259.62E+00
			41.50		259.24E+00
			42.00		258.67E+00
			42.50		258.04E+00
			43.00		257.43E+00
			43.50		256.92E+00
			44.00		256.42E+00
			44.50		255.76E+00
			45.00		255.02E+00
			45.50		254.41E+00
			46.00		253.85E+00
			46.50		253.28E+00
			47.00		252.83E+00
			47.50		252.46E+00
			48.00		251.87E+00
			48.50		251.07E+00
			49.00		250.27E+00
			49.50		249.56E+00
			50.00		248.85E+00
			50.50		248.13E+00
			51.00		247.58E+00
			51.50		247.08E+00
			52.00		246.48E+00
			52.50		245.78E+00
			53.00		244.93E+00
			53.50		244.09E+00
			54.00		243.52E+00
			54.50		242.96E+00
			55.00		242.13E+00
			55.50		241.29E+00
			56.00		240.64E+00
			56.50		240.05E+00
			57.00		239.28E+00
			57.50		238.41E+00
			58.00		237.74E+00
			58.50		237.16E+00
			59.00		236.46E+00
			59.50		235.75E+00
			60.00		235.08E+00
			60.50		234.42E+00
			61.00		233.65E+00
			61.50		232.74E+00
			62.00		231.84E+00
			62.50		231.11E+00
			63.00		230.57E+00
			63.50		229.95E+00
			64.00		228.99E+00
			64.50		227.97E+00
			65.00		226.79E+00
			65.50		225.63E+00
			66.00		224.80E+00
			66.50		223.96E+00
			67.00		222.89E+00
			67.50		221.86E+00
			68.00		220.86E+00
			68.50		219.71E+00
			69.00		218.38E+00
			69.50		217.04E+00
			70.00		215.51E+00
			70.50		213.86E+00
			71.00		212.04E+00
			71.50		210.18E+00
			72.00		208.15E+00
			72.50		205.83E+00
			73.00		203.01E+00
			73.50		199.91E+00
			74.00		195.86E+00
			74.50		191.14E+00
			75.00		185.18E+00
			75.50		178.67E+00
			76.00		170.80E+00
			76.50		162.24E+00
			77.00		152.58E+00
			77.50		142.42E+00
			78.00		131.67E+00
			78.50		120.78E+00
			79.00		110.06E+00
			79.50		99.527E+00
			80.00		89.475E+00
			80.50		79.870E+00
			81.00		71.306E+00
			81.50		63.314E+00
			82.00		56.681E+00
			82.50		50.887E+00
			83.00		46.619E+00
			83.50		43.011E+00
			84.00		40.331E+00
			84.50		38.101E+00
			85.00		36.392E+00
			85.50		34.871E+00
			86.00		33.605E+00
			86.50		32.460E+00
			87.00		31.502E+00
			87.50		30.612E+00
			88.00		29.889E+00
			88.50		29.228E+00
			89.00		28.576E+00
			89.50		27.925E+00
			90.00		27.370E+00
			90.50		26.872E+00
			91.00		26.388E+00
			91.50		25.907E+00
			92.00		25.452E+00
			92.50		24.998E+00
			93.00		24.561E+00
			93.50		24.146E+00
			94.00		23.752E+00
			94.50		23.368E+00
			95.00		23.035E+00
			95.50		22.697E+00
			96.00		22.317E+00
			96.50		21.931E+00
			97.00		21.540E+00
			97.50		21.185E+00
			98.00		20.892E+00
			98.50		20.608E+00
			99.00		20.340E+00
			99.50		20.053E+00
			100.00		19.733E+00
			100.50		19.429E+00
			101.00		19.193E+00
			101.50		18.974E+00
			102.00		18.712E+00
			102.50		18.436E+00
			103.00		18.196E+00
			103.50		17.966E+00
			104.00		17.701E+00
			104.50		17.424E+00
			105.00		17.167E+00
			105.50		16.910E+00
			106.00		16.653E+00
			106.50		16.434E+00
			107.00		16.280E+00
			107.50		16.128E+00
			108.00		15.951E+00
			108.50		15.748E+00
			109.00		15.506E+00
			109.50		15.269E+00
			110.00		15.063E+00
			110.50		14.868E+00
			111.00		14.732E+00
			111.50		14.622E+00
			112.00		14.483E+00
			112.50		14.302E+00
			113.00		14.080E+00
			113.50		13.868E+00
			114.00		13.679E+00
			114.50		13.503E+00
			115.00		13.375E+00
			115.50		13.247E+00
			116.00		13.070E+00
			116.50		12.898E+00
			117.00		12.750E+00
			117.50		12.597E+00
			118.00		12.460E+00
			118.50		12.335E+00
			119.00		12.196E+00
			119.50		12.054E+00
			120.00		12.186E+00
		END_DATA
	END_SCAN  3
	BEGIN_SCAN  4
		TASK_NAME=tba PDD Profiles
		PROGRAM=WaterTankScans
		COMMENT=Gemelli
		MEAS_DATE=08-Feb-2021 09:38:10
		LINAC=MRIdian
		MODALITY=X
		ISOCENTER=900.00
		INPLANE_AXIS=Y
		CROSSPLANE_AXIS=X
		DEPTH_AXIS=Depth
		INPLANE_AXIS_DIR=TARGET_GUN
		CROSSPLANE_AXIS_DIR=LEFT_RIGHT
		DEPTH_AXIS_DIR=UP_DOWN
		ENERGY=6.00
		NOMINAL_DMAX=15.00
		SSD=850.00
		SCD=450.00
		WEDGE_ANGLE=0.00
		FIELD_INPLANE=149.40
		FIELD_CROSSPLANE=149.40
		FIELD_TYPE=RECTANGULAR
		GANTRY=0.00
		GANTRY_UPRIGHT_POSITION=0
		GANTRY_ROTATION=CW
		COLL_ANGLE=0.00
		COLL_OFFSET_INPLANE=0.00
		COLL_OFFSET_CROSSPLANE=0.00
		SCAN_DEVICE=BeamScan
		SCAN_DEVICE_SETUP=BARA_LEFT_RIGHT
		ELECTROMETER=BeamScan
		RANGE_FIELD=LOW
		RANGE_REFERENCE=MEDIUM
		DETECTOR=THIMBLE_CHAMBER
		DETECTOR_RADIUS=2.40
		DETECTOR_NAME=A28MR
		DETECTOR_SN=-
		DETECTOR_CALIBRATION=588000000.00
		DETECTOR_IS_CALIBRATED=0
		DETECTOR_REFERENCE=THIMBLE_CHAMBER
		DETECTOR_REFERENCE_RADIUS=2.75
		DETECTOR_REFERENCE_NAME=A28MR
		DETECTOR_REFERENCE_SN=—
		DETECTOR_REFERENCE_IS_CALIBRATED=0
		DETECTOR_REFERENCE_CALIBRATION=303000000.00
		DETECTOR_HV=300.0
		DETECTOR_REFERENCE_HV=300.0
		DETECTOR_ORIENTATION=HORIZONTAL
		FILTER=FFF
		SCAN_SPEED_PROFILE=10.00
		SCAN_PROF_SPEED_DEP=DEPTH
		SCAN_SPEED_PDD=0.00
		SCAN_PDD_SPEED_DEP=ENERGY
		DETECTOR_TYPE=A28MR
		REF_FIELD_DEPTH=220.00
		REF_FIELD_DEFINED=ISOCENTER
		REF_FIELD_INPLANE=100.00
		REF_FIELD_CROSSPLANE=100.00
		REF_SCAN_POSITIONS=-85.00;-84.00;-83.00;-82.00;-81.00;-80.00;-79.00;-78.00;-77.00;-76.00;-75.00;-74.00;-73.00;-72.00;-71.00;-70.00;-69.00;-68.00;-67.00;-66.00;-65.00;-64.00;-63.00;-62.00;-61.00;-60.00;-59.00;-58.00;-57.00;-56.00;-55.00;-54.00;-53.00;-52.00;-51.00;-50.00;-49.00;-48.00;-47.00;-46.00;-45.00;-44.00;-43.00;-42.00;-41.00;-40.00;-39.00;-38.00;-37.00;-36.00;-35.00;-34.00;-33.00;-32.00;-31.00;-30.00;-29.00;-28.00;-27.00;-26.00;-25.00;-24.00;-23.00;-22.00;-21.00;-20.00;-19.00;-18.00;-17.00;-16.00;-15.00;-14.00;-13.00;-12.00;-11.00;-10.00;-9.00;-8.00;-7.00;-6.00;-5.00;-4.00;-3.00;-2.00;-1.00;0.00;1.00;2.00;3.00;4.00;5.00;6.00;7.00;8.00;9.00;10.00;11.00;12.00;13.00;14.00;15.00;16.00;17.00;18.00;19.00;20.00;21.00;22.00;23.00;24.00;25.00;26.00;27.00;28.00;29.00;30.00;31.00;32.00;33.00;34.00;35.00;36.00;37.00;38.00;39.00;40.00;41.00;42.00;43.00;44.00;45.00;46.00;47.00;48.00;49.00;50.00;51.00;52.00;53.00;54.00;55.00;56.00;57.00;58.00;59.00;60.00;61.00;62.00;63.00;64.00;65.00;66.00;67.00;68.00;69.00;70.00;71.00;72.00;73.00;74.00;75.00;76.00;77.00;78.00;79.00;80.00;81.00;82.00;83.00;84.00;85.00;
		REF_OVERSCAN_FACTOR=1.00
		SCAN_CURVETYPE=CROSSPLANE_PROFILE
		SCAN_DEPTH=150.00
		SCAN_OFFAXIS_INPLANE=0.00
		SCAN_OFFAXIS_CROSSPLANE=0.00
		SCAN_ANGLE=0.00
		SCAN_DIAGONAL=NOT_DIAGONAL
		SCAN_DIRECTION=POSITIVE
		MEAS_MEDIUM=WATER
		MEAS_PRESET=MEAS_CONTINUOUS_REFERENCE_SCAN
		MEAS_TIME=0.100
		MEAS_UNIT=A.U.
		INCLINATION_ANGLE=0.00
		PRESSURE=1013.25
		TEMPERATURE=20.00
		NORM_TEMPERATURE=20.00
		CORRECTION_FACTOR=1.0000
		EXPECTED_MAX_DOSE_RATE=3.00
		EPOM_DEPTH_SHIFT=0.2
		EPOM_MODE=SHIFT_PROTOCOL
		CORRECTIONS=SMOOTHED_CORR;CAX_CORR;INTERPOLATED_CORR;SYMMETRY_CORR;
		BEGIN_DATA
			-129.00		13.193E+00
			-128.50		13.138E+00
			-128.00		13.239E+00
			-127.50		13.350E+00
			-127.00		13.503E+00
			-126.50		13.663E+00
			-126.00		13.790E+00
			-125.50		13.910E+00
			-125.00		14.030E+00
			-124.50		14.167E+00
			-124.00		14.325E+00
			-123.50		14.464E+00
			-123.00		14.594E+00
			-122.50		14.751E+00
			-122.00		14.920E+00
			-121.50		15.099E+00
			-121.00		15.281E+00
			-120.50		15.472E+00
			-120.00		15.658E+00
			-119.50		15.806E+00
			-119.00		15.944E+00
			-118.50		16.114E+00
			-118.00		16.299E+00
			-117.50		16.478E+00
			-117.00		16.645E+00
			-116.50		16.802E+00
			-116.00		16.977E+00
			-115.50		17.158E+00
			-115.00		17.340E+00
			-114.50		17.526E+00
			-114.00		17.741E+00
			-113.50		17.960E+00
			-113.00		18.156E+00
			-112.50		18.340E+00
			-112.00		18.549E+00
			-111.50		18.769E+00
			-111.00		18.992E+00
			-110.50		19.216E+00
			-110.00		19.425E+00
			-109.50		19.612E+00
			-109.00		19.806E+00
			-108.50		20.056E+00
			-108.00		20.322E+00
			-107.50		20.587E+00
			-107.00		20.840E+00
			-106.50		21.077E+00
			-106.00		21.318E+00
			-105.50		21.605E+00
			-105.00		21.913E+00
			-104.50		22.193E+00
			-104.00		22.451E+00
			-103.50		22.716E+00
			-103.00		22.971E+00
			-102.50		23.222E+00
			-102.00		23.542E+00
			-101.50		23.889E+00
			-101.00		24.245E+00
			-100.50		24.592E+00
			-100.00		24.921E+00
			-99.50		25.250E+00
			-99.00		25.603E+00
			-98.50		25.967E+00
			-98.00		26.363E+00
			-97.50		26.728E+00
			-97.00		27.125E+00
			-96.50		27.590E+00
			-96.00		28.038E+00
			-95.50		28.424E+00
			-95.00		28.847E+00
			-94.50		29.369E+00
			-94.00		29.917E+00
			-93.50		30.535E+00
			-93.00		31.173E+00
			-92.50		31.847E+00
			-92.00		32.543E+00
			-91.50		33.425E+00
			-91.00		34.379E+00
			-90.50		35.509E+00
			-90.00		36.797E+00
			-89.50		38.372E+00
			-89.00		40.218E+00
			-88.50		42.473E+00
			-88.00		45.330E+00
			-87.50		48.673E+00
			-87.00		53.149E+00
			-86.50		58.056E+00
			-86.00		64.089E+00
			-85.50		70.438E+00
			-85.00		77.729E+00
			-84.50		85.290E+00
			-84.00		93.233E+00
			-83.50		101.36E+00
			-83.00		109.57E+00
			-82.50		117.81E+00
			-82.00		125.69E+00
			-81.50		133.24E+00
			-81.00		140.46E+00
			-80.50		146.94E+00
			-80.00		153.04E+00
			-79.50		158.00E+00
			-79.00		162.63E+00
			-78.50		166.20E+00
			-78.00		169.49E+00
			-77.50		172.11E+00
			-77.00		174.49E+00
			-76.50		176.45E+00
			-76.00		178.24E+00
			-75.50		179.76E+00
			-75.00		181.26E+00
			-74.50		182.65E+00
			-74.00		183.80E+00
			-73.50		184.93E+00
			-73.00		186.07E+00
			-72.50		187.14E+00
			-72.00		188.07E+00
			-71.50		188.99E+00
			-71.00		189.95E+00
			-70.50		190.88E+00
			-70.00		191.60E+00
			-69.50		192.28E+00
			-69.00		192.99E+00
			-68.50		193.74E+00
			-68.00		194.56E+00
			-67.50		195.33E+00
			-67.00		195.97E+00
			-66.50		196.57E+00
			-66.00		197.17E+00
			-65.50		197.76E+00
			-65.00		198.42E+00
			-64.50		199.16E+00
			-64.00		199.87E+00
			-63.50		200.48E+00
			-63.00		201.06E+00
			-62.50		201.63E+00
			-62.00		202.21E+00
			-61.50		202.80E+00
			-61.00		203.41E+00
			-60.50		204.04E+00
			-60.00		204.68E+00
			-59.50		205.33E+00
			-59.00		205.98E+00
			-58.50		206.60E+00
			-58.00		207.17E+00
			-57.50		207.73E+00
			-57.00		208.24E+00
			-56.50		208.76E+00
			-56.00		209.30E+00
			-55.50		209.83E+00
			-55.00		210.40E+00
			-54.50		210.98E+00
			-54.00		211.51E+00
			-53.50		212.11E+00
			-53.00		212.66E+00
			-52.50		213.21E+00
			-52.00		213.77E+00
			-51.50		214.29E+00
			-51.00		214.82E+00
			-50.50		215.36E+00
			-50.00		215.90E+00
			-49.50		216.39E+00
			-49.00		216.88E+00
			-48.50		217.33E+00
			-48.00		217.79E+00
			-47.50		218.25E+00
			-47.00		218.73E+00
			-46.50		219.21E+00
			-46.00		219.68E+00
			-45.50		220.18E+00
			-45.00		220.67E+00
			-44.50		221.14E+00
			-44.00		221.62E+00
			-43.50		222.08E+00
			-43.00		222.53E+00
			-42.50		222.98E+00
			-42.00		223.40E+00
			-41.50		223.82E+00
			-41.00		224.22E+00
			-40.50		224.60E+00
			-40.00		225.00E+00
			-39.50		225.43E+00
			-39.00		225.86E+00
			-38.50		226.34E+00
			-38.00		226.81E+00
			-37.50		227.26E+00
			-37.00		227.70E+00
			-36.50		228.10E+00
			-36.00		228.49E+00
			-35.50		228.89E+00
			-35.00		229.27E+00
			-34.50		229.67E+00
			-34.00		230.09E+00
			-33.50		230.46E+00
			-33.00		230.83E+00
			-32.50		231.16E+00
			-32.00		231.45E+00
			-31.50		231.75E+00
			-31.00		232.04E+00
			-30.50		232.35E+00
			-30.00		232.69E+00
			-29.50		233.04E+00
			-29.00		233.40E+00
			-28.50		233.74E+00
			-28.00		234.08E+00
			-27.50		234.39E+00
			-27.00		234.69E+00
			-26.50		234.98E+00
			-26.00		235.29E+00
			-25.50		235.58E+00
			-25.00		235.86E+00
			-24.50		236.13E+00
			-24.00		236.38E+00
			-23.50		236.64E+00
			-23.00		236.91E+00
			-22.50		237.23E+00
			-22.00		237.55E+00
			-21.50		237.87E+00
			-21.00		238.18E+00
			-20.50		238.44E+00
			-20.00		238.70E+00
			-19.50		238.92E+00
			-19.00		239.13E+00
			-18.50		239.29E+00
			-18.00		239.46E+00
			-17.50		239.57E+00
			-17.00		239.68E+00
			-16.50		239.83E+00
			-16.00		239.97E+00
			-15.50		240.13E+00
			-15.00		240.33E+00
			-14.50		240.52E+00
			-14.00		240.70E+00
			-13.50		240.86E+00
			-13.00		241.01E+00
			-12.50		241.15E+00
			-12.00		241.30E+00
			-11.50		241.43E+00
			-11.00		241.58E+00
			-10.50		241.74E+00
			-10.00		241.85E+00
			-9.50		242.01E+00
			-9.00		242.16E+00
			-8.50		242.32E+00
			-8.00		242.46E+00
			-7.50		242.57E+00
			-7.00		242.66E+00
			-6.50		242.70E+00
			-6.00		242.74E+00
			-5.50		242.74E+00
			-5.00		242.74E+00
			-4.50		242.76E+00
			-4.00		242.78E+00
			-3.50		242.85E+00
			-3.00		242.95E+00
			-2.50		243.01E+00
			-2.00		243.05E+00
			-1.50		243.05E+00
			-1.00		242.98E+00
			-0.50		242.92E+00
			0.00		242.91E+00
			0.50		242.92E+00
			1.00		242.98E+00
			1.50		243.05E+00
			2.00		243.05E+00
			2.50		243.01E+00
			3.00		242.95E+00
			3.50		242.85E+00
			4.00		242.78E+00
			4.50		242.76E+00
			5.00		242.74E+00
			5.50		242.74E+00
			6.00		242.74E+00
			6.50		242.70E+00
			7.00		242.66E+00
			7.50		242.57E+00
			8.00		242.46E+00
			8.50		242.32E+00
			9.00		242.16E+00
			9.50		242.01E+00
			10.00		241.85E+00
			10.50		241.74E+00
			11.00		241.58E+00
			11.50		241.43E+00
			12.00		241.30E+00
			12.50		241.15E+00
			13.00		241.01E+00
			13.50		240.86E+00
			14.00		240.70E+00
			14.50		240.52E+00
			15.00		240.33E+00
			15.50		240.13E+00
			16.00		239.97E+00
			16.50		239.83E+00
			17.00		239.68E+00
			17.50		239.57E+00
			18.00		239.46E+00
			18.50		239.29E+00
			19.00		239.13E+00
			19.50		238.92E+00
			20.00		238.70E+00
			20.50		238.44E+00
			21.00		238.18E+00
			21.50		237.87E+00
			22.00		237.55E+00
			22.50		237.23E+00
			23.00		236.91E+00
			23.50		236.64E+00
			24.00		236.38E+00
			24.50		236.13E+00
			25.00		235.86E+00
			25.50		235.58E+00
			26.00		235.29E+00
			26.50		234.98E+00
			27.00		234.69E+00
			27.50		234.39E+00
			28.00		234.08E+00
			28.50		233.74E+00
			29.00		233.40E+00
			29.50		233.04E+00
			30.00		232.69E+00
			30.50		232.35E+00
			31.00		232.04E+00
			31.50		231.75E+00
			32.00		231.45E+00
			32.50		231.16E+00
			33.00		230.83E+00
			33.50		230.46E+00
			34.00		230.09E+00
			34.50		229.67E+00
			35.00		229.27E+00
			35.50		228.89E+00
			36.00		228.49E+00
			36.50		228.10E+00
			37.00		227.70E+00
			37.50		227.26E+00
			38.00		226.81E+00
			38.50		226.34E+00
			39.00		225.86E+00
			39.50		225.43E+00
			40.00		225.00E+00
			40.50		224.60E+00
			41.00		224.22E+00
			41.50		223.82E+00
			42.00		223.40E+00
			42.50		222.98E+00
			43.00		222.53E+00
			43.50		222.08E+00
			44.00		221.62E+00
			44.50		221.14E+00
			45.00		220.67E+00
			45.50		220.18E+00
			46.00		219.68E+00
			46.50		219.21E+00
			47.00		218.73E+00
			47.50		218.25E+00
			48.00		217.79E+00
			48.50		217.33E+00
			49.00		216.88E+00
			49.50		216.39E+00
			50.00		215.90E+00
			50.50		215.36E+00
			51.00		214.82E+00
			51.50		214.29E+00
			52.00		213.77E+00
			52.50		213.21E+00
			53.00		212.66E+00
			53.50		212.11E+00
			54.00		211.51E+00
			54.50		210.98E+00
			55.00		210.40E+00
			55.50		209.83E+00
			56.00		209.30E+00
			56.50		208.76E+00
			57.00		208.24E+00
			57.50		207.73E+00
			58.00		207.17E+00
			58.50		206.60E+00
			59.00		205.98E+00
			59.50		205.33E+00
			60.00		204.68E+00
			60.50		204.04E+00
			61.00		203.41E+00
			61.50		202.80E+00
			62.00		202.21E+00
			62.50		201.63E+00
			63.00		201.06E+00
			63.50		200.48E+00
			64.00		199.87E+00
			64.50		199.16E+00
			65.00		198.42E+00
			65.50		197.76E+00
			66.00		197.17E+00
			66.50		196.57E+00
			67.00		195.97E+00
			67.50		195.33E+00
			68.00		194.56E+00
			68.50		193.74E+00
			69.00		192.99E+00
			69.50		192.28E+00
			70.00		191.60E+00
			70.50		190.88E+00
			71.00		189.95E+00
			71.50		188.99E+00
			72.00		188.07E+00
			72.50		187.14E+00
			73.00		186.07E+00
			73.50		184.93E+00
			74.00		183.80E+00
			74.50		182.65E+00
			75.00		181.26E+00
			75.50		179.76E+00
			76.00		178.24E+00
			76.50		176.45E+00
			77.00		174.49E+00
			77.50		172.11E+00
			78.00		169.49E+00
			78.50		166.20E+00
			79.00		162.63E+00
			79.50		158.00E+00
			80.00		153.04E+00
			80.50		146.94E+00
			81.00		140.46E+00
			81.50		133.24E+00
			82.00		125.69E+00
			82.50		117.81E+00
			83.00		109.57E+00
			83.50		101.36E+00
			84.00		93.233E+00
			84.50		85.290E+00
			85.00		77.729E+00
			85.50		70.438E+00
			86.00		64.089E+00
			86.50		58.056E+00
			87.00		53.149E+00
			87.50		48.673E+00
			88.00		45.330E+00
			88.50		42.473E+00
			89.00		40.218E+00
			89.50		38.372E+00
			90.00		36.797E+00
			90.50		35.509E+00
			91.00		34.379E+00
			91.50		33.425E+00
			92.00		32.543E+00
			92.50		31.847E+00
			93.00		31.173E+00
			93.50		30.535E+00
			94.00		29.917E+00
			94.50		29.369E+00
			95.00		28.847E+00
			95.50		28.424E+00
			96.00		28.038E+00
			96.50		27.590E+00
			97.00		27.125E+00
			97.50		26.728E+00
			98.00		26.363E+00
			98.50		25.967E+00
			99.00		25.603E+00
			99.50		25.250E+00
			100.00		24.921E+00
			100.50		24.592E+00
			101.00		24.245E+00
			101.50		23.889E+00
			102.00		23.542E+00
			102.50		23.222E+00
			103.00		22.971E+00
			103.50		22.716E+00
			104.00		22.451E+00
			104.50		22.193E+00
			105.00		21.913E+00
			105.50		21.605E+00
			106.00		21.318E+00
			106.50		21.077E+00
			107.00		20.840E+00
			107.50		20.587E+00
			108.00		20.322E+00
			108.50		20.056E+00
			109.00		19.806E+00
			109.50		19.612E+00
			110.00		19.425E+00
			110.50		19.216E+00
			111.00		18.992E+00
			111.50		18.769E+00
			112.00		18.549E+00
			112.50		18.340E+00
			113.00		18.156E+00
			113.50		17.960E+00
			114.00		17.741E+00
			114.50		17.526E+00
			115.00		17.340E+00
			115.50		17.158E+00
			116.00		16.977E+00
			116.50		16.802E+00
			117.00		16.645E+00
			117.50		16.478E+00
			118.00		16.299E+00
			118.50		16.114E+00
			119.00		15.944E+00
			119.50		15.806E+00
			120.00		15.658E+00
			120.50		15.472E+00
			121.00		15.281E+00
			121.50		15.099E+00
			122.00		14.920E+00
			122.50		14.751E+00
			123.00		14.594E+00
			123.50		14.464E+00
			124.00		14.325E+00
			124.50		14.167E+00
			125.00		14.030E+00
			125.50		13.910E+00
			126.00		13.790E+00
			126.50		13.663E+00
			127.00		13.503E+00
			127.50		13.350E+00
			128.00		13.239E+00
			128.50		13.138E+00
			129.00		13.193E+00
		END_DATA
	END_SCAN  4
	BEGIN_SCAN  5
		TASK_NAME=tba PDD Profiles
		PROGRAM=WaterTankScans
		COMMENT=Gemelli
		MEAS_DATE=08-Feb-2021 09:38:10
		LINAC=MRIdian
		MODALITY=X
		ISOCENTER=900.00
		INPLANE_AXIS=Y
		CROSSPLANE_AXIS=X
		DEPTH_AXIS=Depth
		INPLANE_AXIS_DIR=TARGET_GUN
		CROSSPLANE_AXIS_DIR=LEFT_RIGHT
		DEPTH_AXIS_DIR=UP_DOWN
		ENERGY=6.00
		NOMINAL_DMAX=15.00
		SSD=850.00
		SCD=450.00
		WEDGE_ANGLE=0.00
		FIELD_INPLANE=149.40
		FIELD_CROSSPLANE=149.40
		FIELD_TYPE=RECTANGULAR
		GANTRY=0.00
		GANTRY_UPRIGHT_POSITION=0
		GANTRY_ROTATION=CW
		COLL_ANGLE=0.00
		COLL_OFFSET_INPLANE=0.00
		COLL_OFFSET_CROSSPLANE=0.00
		SCAN_DEVICE=BeamScan
		SCAN_DEVICE_SETUP=BARA_LEFT_RIGHT
		ELECTROMETER=BeamScan
		RANGE_FIELD=LOW
		RANGE_REFERENCE=MEDIUM
		DETECTOR=THIMBLE_CHAMBER
		DETECTOR_RADIUS=2.40
		DETECTOR_NAME=A28MR
		DETECTOR_SN=-
		DETECTOR_CALIBRATION=588000000.00
		DETECTOR_IS_CALIBRATED=0
		DETECTOR_REFERENCE=THIMBLE_CHAMBER
		DETECTOR_REFERENCE_RADIUS=2.75
		DETECTOR_REFERENCE_NAME=A28MR
		DETECTOR_REFERENCE_SN=—
		DETECTOR_REFERENCE_IS_CALIBRATED=0
		DETECTOR_REFERENCE_CALIBRATION=303000000.00
		DETECTOR_HV=300.0
		DETECTOR_REFERENCE_HV=300.0
		DETECTOR_ORIENTATION=HORIZONTAL
		FILTER=FFF
		SCAN_SPEED_PROFILE=10.00
		SCAN_PROF_SPEED_DEP=DEPTH
		SCAN_SPEED_PDD=0.00
		SCAN_PDD_SPEED_DEP=ENERGY
		DETECTOR_TYPE=A28MR
		REF_FIELD_DEPTH=220.00
		REF_FIELD_DEFINED=ISOCENTER
		REF_FIELD_INPLANE=100.00
		REF_FIELD_CROSSPLANE=100.00
		REF_SCAN_POSITIONS=-85.00;-84.00;-83.00;-82.00;-81.00;-80.00;-79.00;-78.00;-77.00;-76.00;-75.00;-74.00;-73.00;-72.00;-71.00;-70.00;-69.00;-68.00;-67.00;-66.00;-65.00;-64.00;-63.00;-62.00;-61.00;-60.00;-59.00;-58.00;-57.00;-56.00;-55.00;-54.00;-53.00;-52.00;-51.00;-50.00;-49.00;-48.00;-47.00;-46.00;-45.00;-44.00;-43.00;-42.00;-41.00;-40.00;-39.00;-38.00;-37.00;-36.00;-35.00;-34.00;-33.00;-32.00;-31.00;-30.00;-29.00;-28.00;-27.00;-26.00;-25.00;-24.00;-23.00;-22.00;-21.00;-20.00;-19.00;-18.00;-17.00;-16.00;-15.00;-14.00;-13.00;-12.00;-11.00;-10.00;-9.00;-8.00;-7.00;-6.00;-5.00;-4.00;-3.00;-2.00;-1.00;0.00;1.00;2.00;3.00;4.00;5.00;6.00;7.00;8.00;9.00;10.00;11.00;12.00;13.00;14.00;15.00;16.00;17.00;18.00;19.00;20.00;21.00;22.00;23.00;24.00;25.00;26.00;27.00;28.00;29.00;30.00;31.00;32.00;33.00;34.00;35.00;36.00;37.00;38.00;39.00;40.00;41.00;42.00;43.00;44.00;45.00;46.00;47.00;48.00;49.00;50.00;51.00;52.00;53.00;54.00;55.00;56.00;57.00;58.00;59.00;60.00;61.00;62.00;63.00;64.00;65.00;66.00;67.00;68.00;69.00;70.00;71.00;72.00;73.00;74.00;75.00;76.00;77.00;78.00;79.00;80.00;81.00;82.00;83.00;84.00;85.00;
		REF_OVERSCAN_FACTOR=1.00
		SCAN_CURVETYPE=CROSSPLANE_PROFILE
		SCAN_DEPTH=200.00
		SCAN_OFFAXIS_INPLANE=0.00
		SCAN_OFFAXIS_CROSSPLANE=0.00
		SCAN_ANGLE=0.00
		SCAN_DIAGONAL=NOT_DIAGONAL
		SCAN_DIRECTION=POSITIVE
		MEAS_MEDIUM=WATER
		MEAS_PRESET=MEAS_CONTINUOUS_REFERENCE_SCAN
		MEAS_TIME=0.100
		MEAS_UNIT=A.U.
		INCLINATION_ANGLE=0.00
		PRESSURE=1013.25
		TEMPERATURE=20.00
		NORM_TEMPERATURE=20.00
		CORRECTION_FACTOR=1.0000
		EXPECTED_MAX_DOSE_RATE=3.00
		EPOM_DEPTH_SHIFT=0.2
		EPOM_MODE=SHIFT_PROTOCOL
		CORRECTIONS=SMOOTHED_CORR;CAX_CORR;INTERPOLATED_CORR;SYMMETRY_CORR;
		BEGIN_DATA
			-129.00		13.129E+00
			-128.50		13.215E+00
			-128.00		13.310E+00
			-127.50		13.254E+00
			-127.00		13.369E+00
			-126.50		13.525E+00
			-126.00		13.686E+00
			-125.50		13.821E+00
			-125.00		13.951E+00
			-124.50		14.078E+00
			-124.00		14.211E+00
			-123.50		14.345E+00
			-123.00		14.468E+00
			-122.50		14.619E+00
			-122.00		14.806E+00
			-121.50		14.962E+00
			-121.00		15.062E+00
			-120.50		15.189E+00
			-120.00		15.390E+00
			-119.50		15.586E+00
			-119.00		15.712E+00
			-118.50		15.826E+00
			-118.00		15.991E+00
			-117.50		16.174E+00
			-117.00		16.347E+00
			-116.50		16.512E+00
			-116.00		16.696E+00
			-115.50		16.885E+00
			-115.00		17.038E+00
			-114.50		17.170E+00
			-114.00		17.330E+00
			-113.50		17.501E+00
			-113.00		17.668E+00
			-112.50		17.916E+00
			-112.00		18.175E+00
			-111.50		18.340E+00
			-111.00		18.479E+00
			-110.50		18.700E+00
			-110.00		18.961E+00
			-109.50		19.167E+00
			-109.00		19.336E+00
			-108.50		19.539E+00
			-108.00		19.764E+00
			-107.50		19.983E+00
			-107.00		20.215E+00
			-106.50		20.466E+00
			-106.00		20.726E+00
			-105.50		20.972E+00
			-105.00		21.233E+00
			-104.50		21.502E+00
			-104.00		21.726E+00
			-103.50		21.931E+00
			-103.00		22.194E+00
			-102.50		22.483E+00
			-102.00		22.810E+00
			-101.50		23.159E+00
			-101.00		23.472E+00
			-100.50		23.760E+00
			-100.00		24.069E+00
			-99.50		24.426E+00
			-99.00		24.791E+00
			-98.50		25.170E+00
			-98.00		25.567E+00
			-97.50		26.028E+00
			-97.00		26.493E+00
			-96.50		27.036E+00
			-96.00		27.604E+00
			-95.50		28.288E+00
			-95.00		28.992E+00
			-94.50		29.906E+00
			-94.00		30.917E+00
			-93.50		32.155E+00
			-93.00		33.614E+00
			-92.50		35.323E+00
			-92.00		37.531E+00
			-91.50		39.936E+00
			-91.00		43.250E+00
			-90.50		46.718E+00
			-90.00		51.114E+00
			-89.50		55.620E+00
			-89.00		60.726E+00
			-88.50		65.899E+00
			-88.00		71.491E+00
			-87.50		77.177E+00
			-87.00		82.809E+00
			-86.50		88.393E+00
			-86.00		93.815E+00
			-85.50		99.042E+00
			-85.00		104.00E+00
			-84.50		108.41E+00
			-84.00		112.60E+00
			-83.50		115.85E+00
			-83.00		118.99E+00
			-82.50		121.35E+00
			-82.00		123.65E+00
			-81.50		125.54E+00
			-81.00		127.38E+00
			-80.50		128.71E+00
			-80.00		129.89E+00
			-79.50		131.00E+00
			-79.00		132.14E+00
			-78.50		133.19E+00
			-78.00		134.08E+00
			-77.50		134.96E+00
			-77.00		135.82E+00
			-76.50		136.65E+00
			-76.00		137.32E+00
			-75.50		137.99E+00
			-75.00		138.64E+00
			-74.50		139.27E+00
			-74.00		139.77E+00
			-73.50		140.24E+00
			-73.00		140.79E+00
			-72.50		141.38E+00
			-72.00		141.94E+00
			-71.50		142.49E+00
			-71.00		142.99E+00
			-70.50		143.49E+00
			-70.00		143.97E+00
			-69.50		144.43E+00
			-69.00		144.90E+00
			-68.50		145.35E+00
			-68.00		145.79E+00
			-67.50		146.26E+00
			-67.00		146.74E+00
			-66.50		147.23E+00
			-66.00		147.73E+00
			-65.50		148.18E+00
			-65.00		148.61E+00
			-64.50		149.03E+00
			-64.00		149.43E+00
			-63.50		149.83E+00
			-63.00		150.27E+00
			-62.50		150.71E+00
			-62.00		151.15E+00
			-61.50		151.60E+00
			-61.00		152.03E+00
			-60.50		152.46E+00
			-60.00		152.87E+00
			-59.50		153.27E+00
			-59.00		153.70E+00
			-58.50		154.12E+00
			-58.00		154.52E+00
			-57.50		154.93E+00
			-57.00		155.32E+00
			-56.50		155.70E+00
			-56.00		156.09E+00
			-55.50		156.50E+00
			-55.00		156.90E+00
			-54.50		157.32E+00
			-54.00		157.73E+00
			-53.50		158.10E+00
			-53.00		158.49E+00
			-52.50		158.83E+00
			-52.00		159.17E+00
			-51.50		159.52E+00
			-51.00		159.87E+00
			-50.50		160.24E+00
			-50.00		160.58E+00
			-49.50		160.91E+00
			-49.00		161.23E+00
			-48.50		161.55E+00
			-48.00		161.90E+00
			-47.50		162.27E+00
			-47.00		162.67E+00
			-46.50		163.06E+00
			-46.00		163.41E+00
			-45.50		163.75E+00
			-45.00		164.04E+00
			-44.50		164.35E+00
			-44.00		164.64E+00
			-43.50		164.92E+00
			-43.00		165.21E+00
			-42.50		165.52E+00
			-42.00		165.80E+00
			-41.50		166.10E+00
			-41.00		166.39E+00
			-40.50		166.68E+00
			-40.00		166.97E+00
			-39.50		167.27E+00
			-39.00		167.57E+00
			-38.50		167.83E+00
			-38.00		168.11E+00
			-37.50		168.40E+00
			-37.00		168.70E+00
			-36.50		169.00E+00
			-36.00		169.32E+00
			-35.50		169.59E+00
			-35.00		169.85E+00
			-34.50		170.10E+00
			-34.00		170.35E+00
			-33.50		170.60E+00
			-33.00		170.83E+00
			-32.50		171.07E+00
			-32.00		171.34E+00
			-31.50		171.61E+00
			-31.00		171.91E+00
			-30.50		172.20E+00
			-30.00		172.45E+00
			-29.50		172.68E+00
			-29.00		172.87E+00
			-28.50		173.07E+00
			-28.00		173.27E+00
			-27.50		173.49E+00
			-27.00		173.71E+00
			-26.50		173.93E+00
			-26.00		174.13E+00
			-25.50		174.35E+00
			-25.00		174.56E+00
			-24.50		174.75E+00
			-24.00		174.95E+00
			-23.50		175.12E+00
			-23.00		175.30E+00
			-22.50		175.47E+00
			-22.00		175.63E+00
			-21.50		175.79E+00
			-21.00		175.95E+00
			-20.50		176.10E+00
			-20.00		176.24E+00
			-19.50		176.39E+00
			-19.00		176.55E+00
			-18.50		176.73E+00
			-18.00		176.92E+00
			-17.50		177.10E+00
			-17.00		177.24E+00
			-16.50		177.38E+00
			-16.00		177.46E+00
			-15.50		177.57E+00
			-15.00		177.68E+00
			-14.50		177.79E+00
			-14.00		177.92E+00
			-13.50		178.04E+00
			-13.00		178.11E+00
			-12.50		178.21E+00
			-12.00		178.29E+00
			-11.50		178.39E+00
			-11.00		178.50E+00
			-10.50		178.64E+00
			-10.00		178.77E+00
			-9.50		178.91E+00
			-9.00		179.02E+00
			-8.50		179.05E+00
			-8.00		179.08E+00
			-7.50		179.07E+00
			-7.00		179.07E+00
			-6.50		179.11E+00
			-6.00		179.17E+00
			-5.50		179.23E+00
			-5.00		179.30E+00
			-4.50		179.33E+00
			-4.00		179.35E+00
			-3.50		179.32E+00
			-3.00		179.29E+00
			-2.50		179.26E+00
			-2.00		179.27E+00
			-1.50		179.29E+00
			-1.00		179.35E+00
			-0.50		179.41E+00
			0.00		179.42E+00
			0.50		179.41E+00
			1.00		179.35E+00
			1.50		179.29E+00
			2.00		179.27E+00
			2.50		179.26E+00
			3.00		179.29E+00
			3.50		179.32E+00
			4.00		179.35E+00
			4.50		179.33E+00
			5.00		179.30E+00
			5.50		179.23E+00
			6.00		179.17E+00
			6.50		179.11E+00
			7.00		179.07E+00
			7.50		179.07E+00
			8.00		179.08E+00
			8.50		179.05E+00
			9.00		179.02E+00
			9.50		178.91E+00
			10.00		178.77E+00
			10.50		178.64E+00
			11.00		178.50E+00
			11.50		178.39E+00
			12.00		178.29E+00
			12.50		178.21E+00
			13.00		178.11E+00
			13.50		178.04E+00
			14.00		177.92E+00
			14.50		177.79E+00
			15.00		177.68E+00
			15.50		177.57E+00
			16.00		177.46E+00
			16.50		177.38E+00
			17.00		177.24E+00
			17.50		177.10E+00
			18.00		176.92E+00
			18.50		176.73E+00
			19.00		176.55E+00
			19.50		176.39E+00
			20.00		176.24E+00
			20.50		176.10E+00
			21.00		175.95E+00
			21.50		175.79E+00
			22.00		175.63E+00
			22.50		175.47E+00
			23.00		175.30E+00
			23.50		175.12E+00
			24.00		174.95E+00
			24.50		174.75E+00
			25.00		174.56E+00
			25.50		174.35E+00
			26.00		174.13E+00
			26.50		173.93E+00
			27.00		173.71E+00
			27.50		173.49E+00
			28.00		173.27E+00
			28.50		173.07E+00
			29.00		172.87E+00
			29.50		172.68E+00
			30.00		172.45E+00
			30.50		172.20E+00
			31.00		171.91E+00
			31.50		171.61E+00
			32.00		171.34E+00
			32.50		171.07E+00
			33.00		170.83E+00
			33.50		170.60E+00
			34.00		170.35E+00
			34.50		170.10E+00
			35.00		169.85E+00
			35.50		169.59E+00
			36.00		169.32E+00
			36.50		169.00E+00
			37.00		168.70E+00
			37.50		168.40E+00
			38.00		168.11E+00
			38.50		167.83E+00
			39.00		167.57E+00
			39.50		167.27E+00
			40.00		166.97E+00
			40.50		166.68E+00
			41.00		166.39E+00
			41.50		166.10E+00
			42.00		165.80E+00
			42.50		165.52E+00
			43.00		165.21E+00
			43.50		164.92E+00
			44.00		164.64E+00
			44.50		164.35E+00
			45.00		164.04E+00
			45.50		163.75E+00
			46.00		163.41E+00
			46.50		163.06E+00
			47.00		162.67E+00
			47.50		162.27E+00
			48.00		161.90E+00
			48.50		161.55E+00
			49.00		161.23E+00
			49.50		160.91E+00
			50.00		160.58E+00
			50.50		160.24E+00
			51.00		159.87E+00
			51.50		159.52E+00
			52.00		159.17E+00
			52.50		158.83E+00
			53.00		158.49E+00
			53.50		158.10E+00
			54.00		157.73E+00
			54.50		157.32E+00
			55.00		156.90E+00
			55.50		156.50E+00
			56.00		156.09E+00
			56.50		155.70E+00
			57.00		155.32E+00
			57.50		154.93E+00
			58.00		154.52E+00
			58.50		154.12E+00
			59.00		153.70E+00
			59.50		153.27E+00
			60.00		152.87E+00
			60.50		152.46E+00
			61.00		152.03E+00
			61.50		151.60E+00
			62.00		151.15E+00
			62.50		150.71E+00
			63.00		150.27E+00
			63.50		149.83E+00
			64.00		149.43E+00
			64.50		149.03E+00
			65.00		148.61E+00
			65.50		148.18E+00
			66.00		147.73E+00
			66.50		147.23E+00
			67.00		146.74E+00
			67.50		146.26E+00
			68.00		145.79E+00
			68.50		145.35E+00
			69.00		144.90E+00
			69.50		144.43E+00
			70.00		143.97E+00
			70.50		143.49E+00
			71.00		142.99E+00
			71.50		142.49E+00
			72.00		141.94E+00
			72.50		141.38E+00
			73.00		140.79E+00
			73.50		140.24E+00
			74.00		139.77E+00
			74.50		139.27E+00
			75.00		138.64E+00
			75.50		137.99E+00
			76.00		137.32E+00
			76.50		136.65E+00
			77.00		135.82E+00
			77.50		134.96E+00
			78.00		134.08E+00
			78.50		133.19E+00
			79.00		132.14E+00
			79.50		131.00E+00
			80.00		129.89E+00
			80.50		128.71E+00
			81.00		127.38E+00
			81.50		125.54E+00
			82.00		123.65E+00
			82.50		121.35E+00
			83.00		118.99E+00
			83.50		115.85E+00
			84.00		112.60E+00
			84.50		108.41E+00
			85.00		104.00E+00
			85.50		99.042E+00
			86.00		93.815E+00
			86.50		88.393E+00
			87.00		82.809E+00
			87.50		77.177E+00
			88.00		71.491E+00
			88.50		65.899E+00
			89.00		60.726E+00
			89.50		55.620E+00
			90.00		51.114E+00
			90.50		46.718E+00
			91.00		43.250E+00
			91.50		39.936E+00
			92.00		37.531E+00
			92.50		35.323E+00
			93.00		33.614E+00
			93.50		32.155E+00
			94.00		30.917E+00
			94.50		29.906E+00
			95.00		28.992E+00
			95.50		28.288E+00
			96.00		27.604E+00
			96.50		27.036E+00
			97.00		26.493E+00
			97.50		26.028E+00
			98.00		25.567E+00
			98.50		25.170E+00
			99.00		24.791E+00
			99.50		24.426E+00
			100.00		24.069E+00
			100.50		23.760E+00
			101.00		23.472E+00
			101.50		23.159E+00
			102.00		22.810E+00
			102.50		22.483E+00
			103.00		22.194E+00
			103.50		21.931E+00
			104.00		21.726E+00
			104.50		21.502E+00
			105.00		21.233E+00
			105.50		20.972E+00
			106.00		20.726E+00
			106.50		20.466E+00
			107.00		20.215E+00
			107.50		19.983E+00
			108.00		19.764E+00
			108.50		19.539E+00
			109.00		19.336E+00
			109.50		19.167E+00
			110.00		18.961E+00
			110.50		18.700E+00
			111.00		18.479E+00
			111.50		18.340E+00
			112.00		18.175E+00
			112.50		17.916E+00
			113.00		17.668E+00
			113.50		17.501E+00
			114.00		17.330E+00
			114.50		17.170E+00
			115.00		17.038E+00
			115.50		16.885E+00
			116.00		16.696E+00
			116.50		16.512E+00
			117.00		16.347E+00
			117.50		16.174E+00
			118.00		15.991E+00
			118.50		15.826E+00
			119.00		15.712E+00
			119.50		15.586E+00
			120.00		15.390E+00
			120.50		15.189E+00
			121.00		15.062E+00
			121.50		14.962E+00
			122.00		14.806E+00
			122.50		14.619E+00
			123.00		14.468E+00
			123.50		14.345E+00
			124.00		14.211E+00
			124.50		14.078E+00
			125.00		13.951E+00
			125.50		13.821E+00
			126.00		13.686E+00
			126.50		13.525E+00
			127.00		13.369E+00
			127.50		13.254E+00
			128.00		13.310E+00
			128.50		13.215E+00
			129.00		13.129E+00
		END_DATA
	END_SCAN  5
	BEGIN_SCAN  6
		TASK_NAME=tba PDD Profiles
		PROGRAM=WaterTankScans
		COMMENT=Gemelli
		MEAS_DATE=08-Feb-2021 09:38:10
		LINAC=MRIdian
		MODALITY=X
		ISOCENTER=900.00
		INPLANE_AXIS=Y
		CROSSPLANE_AXIS=X
		DEPTH_AXIS=Depth
		INPLANE_AXIS_DIR=TARGET_GUN
		CROSSPLANE_AXIS_DIR=LEFT_RIGHT
		DEPTH_AXIS_DIR=UP_DOWN
		ENERGY=6.00
		NOMINAL_DMAX=15.00
		SSD=850.00
		SCD=450.00
		WEDGE_ANGLE=0.00
		FIELD_INPLANE=149.40
		FIELD_CROSSPLANE=149.40
		FIELD_TYPE=RECTANGULAR
		GANTRY=0.00
		GANTRY_UPRIGHT_POSITION=0
		GANTRY_ROTATION=CW
		COLL_ANGLE=0.00
		COLL_OFFSET_INPLANE=0.00
		COLL_OFFSET_CROSSPLANE=0.00
		SCAN_DEVICE=BeamScan
		SCAN_DEVICE_SETUP=BARA_LEFT_RIGHT
		ELECTROMETER=BeamScan
		RANGE_FIELD=LOW
		RANGE_REFERENCE=MEDIUM
		DETECTOR=THIMBLE_CHAMBER
		DETECTOR_RADIUS=2.40
		DETECTOR_NAME=A28MR
		DETECTOR_SN=-
		DETECTOR_CALIBRATION=588000000.00
		DETECTOR_IS_CALIBRATED=0
		DETECTOR_REFERENCE=THIMBLE_CHAMBER
		DETECTOR_REFERENCE_RADIUS=2.75
		DETECTOR_REFERENCE_NAME=A28MR
		DETECTOR_REFERENCE_SN=—
		DETECTOR_REFERENCE_IS_CALIBRATED=0
		DETECTOR_REFERENCE_CALIBRATION=303000000.00
		DETECTOR_HV=300.0
		DETECTOR_REFERENCE_HV=300.0
		DETECTOR_ORIENTATION=HORIZONTAL
		FILTER=FFF
		SCAN_SPEED_PROFILE=10.00
		SCAN_PROF_SPEED_DEP=DEPTH
		SCAN_SPEED_PDD=0.00
		SCAN_PDD_SPEED_DEP=ENERGY
		DETECTOR_TYPE=A28MR
		REF_FIELD_DEPTH=220.00
		REF_FIELD_DEFINED=ISOCENTER
		REF_FIELD_INPLANE=100.00
		REF_FIELD_CROSSPLANE=100.00
		REF_SCAN_POSITIONS=-85.00;-84.00;-83.00;-82.00;-81.00;-80.00;-79.00;-78.00;-77.00;-76.00;-75.00;-74.00;-73.00;-72.00;-71.00;-70.00;-69.00;-68.00;-67.00;-66.00;-65.00;-64.00;-63.00;-62.00;-61.00;-60.00;-59.00;-58.00;-57.00;-56.00;-55.00;-54.00;-53.00;-52.00;-51.00;-50.00;-49.00;-48.00;-47.00;-46.00;-45.00;-44.00;-43.00;-42.00;-41.00;-40.00;-39.00;-38.00;-37.00;-36.00;-35.00;-34.00;-33.00;-32.00;-31.00;-30.00;-29.00;-28.00;-27.00;-26.00;-25.00;-24.00;-23.00;-22.00;-21.00;-20.00;-19.00;-18.00;-17.00;-16.00;-15.00;-14.00;-13.00;-12.00;-11.00;-10.00;-9.00;-8.00;-7.00;-6.00;-5.00;-4.00;-3.00;-2.00;-1.00;0.00;1.00;2.00;3.00;4.00;5.00;6.00;7.00;8.00;9.00;10.00;11.00;12.00;13.00;14.00;15.00;16.00;17.00;18.00;19.00;20.00;21.00;22.00;23.00;24.00;25.00;26.00;27.00;28.00;29.00;30.00;31.00;32.00;33.00;34.00;35.00;36.00;37.00;38.00;39.00;40.00;41.00;42.00;43.00;44.00;45.00;46.00;47.00;48.00;49.00;50.00;51.00;52.00;53.00;54.00;55.00;56.00;57.00;58.00;59.00;60.00;61.00;62.00;63.00;64.00;65.00;66.00;67.00;68.00;69.00;70.00;71.00;72.00;73.00;74.00;75.00;76.00;77.00;78.00;79.00;80.00;81.00;82.00;83.00;84.00;85.00;
		REF_OVERSCAN_FACTOR=1.00
		SCAN_CURVETYPE=CROSSPLANE_PROFILE
		SCAN_DEPTH=250.00
		SCAN_OFFAXIS_INPLANE=0.00
		SCAN_OFFAXIS_CROSSPLANE=0.00
		SCAN_ANGLE=0.00
		SCAN_DIAGONAL=NOT_DIAGONAL
		SCAN_DIRECTION=POSITIVE
		MEAS_MEDIUM=WATER
		MEAS_PRESET=MEAS_CONTINUOUS_REFERENCE_SCAN
		MEAS_TIME=0.100
		MEAS_UNIT=A.U.
		INCLINATION_ANGLE=0.00
		PRESSURE=1013.25
		TEMPERATURE=20.00
		NORM_TEMPERATURE=20.00
		CORRECTION_FACTOR=1.0000
		EXPECTED_MAX_DOSE_RATE=3.00
		EPOM_DEPTH_SHIFT=0.2
		EPOM_MODE=SHIFT_PROTOCOL
		CORRECTIONS=SMOOTHED_CORR;CAX_CORR;INTERPOLATED_CORR;SYMMETRY_CORR;
		BEGIN_DATA
			-129.00		12.046E+00
			-128.50		12.160E+00
			-128.00		12.272E+00
			-127.50		12.359E+00
			-127.00		12.306E+00
			-126.50		12.431E+00
			-126.00		12.568E+00
			-125.50		12.720E+00
			-125.00		12.868E+00
			-124.50		12.970E+00
			-124.00		13.066E+00
			-123.50		13.174E+00
			-123.00		13.285E+00
			-122.50		13.392E+00
			-122.00		13.506E+00
			-121.50		13.646E+00
			-121.00		13.795E+00
			-120.50		13.940E+00
			-120.00		14.088E+00
			-119.50		14.236E+00
			-119.00		14.345E+00
			-118.50		14.451E+00
			-118.00		14.582E+00
			-117.50		14.718E+00
			-117.00		14.887E+00
			-116.50		15.060E+00
			-116.00		15.192E+00
			-115.50		15.314E+00
			-115.00		15.468E+00
			-114.50		15.631E+00
			-114.00		15.802E+00
			-113.50		15.983E+00
			-113.00		16.143E+00
			-112.50		16.260E+00
			-112.00		16.403E+00
			-111.50		16.622E+00
			-111.00		16.831E+00
			-110.50		17.016E+00
			-110.00		17.201E+00
			-109.50		17.351E+00
			-109.00		17.501E+00
			-108.50		17.734E+00
			-108.00		17.979E+00
			-107.50		18.166E+00
			-107.00		18.345E+00
			-106.50		18.563E+00
			-106.00		18.784E+00
			-105.50		18.998E+00
			-105.00		19.224E+00
			-104.50		19.462E+00
			-104.00		19.706E+00
			-103.50		19.959E+00
			-103.00		20.254E+00
			-102.50		20.552E+00
			-102.00		20.862E+00
			-101.50		21.177E+00
			-101.00		21.568E+00
			-100.50		21.979E+00
			-100.00		22.452E+00
			-99.50		22.952E+00
			-99.00		23.583E+00
			-98.50		24.275E+00
			-98.00		25.049E+00
			-97.50		25.919E+00
			-97.00		26.991E+00
			-96.50		28.409E+00
			-96.00		29.986E+00
			-95.50		32.051E+00
			-95.00		34.238E+00
			-94.50		37.022E+00
			-94.00		39.884E+00
			-93.50		43.259E+00
			-93.00		46.719E+00
			-92.50		50.555E+00
			-92.00		54.458E+00
			-91.50		58.344E+00
			-91.00		62.238E+00
			-90.50		66.139E+00
			-90.00		70.057E+00
			-89.50		73.702E+00
			-89.00		76.959E+00
			-88.50		80.090E+00
			-88.00		82.850E+00
			-87.50		85.457E+00
			-87.00		87.415E+00
			-86.50		89.308E+00
			-86.00		90.798E+00
			-85.50		92.219E+00
			-85.00		93.321E+00
			-84.50		94.353E+00
			-84.00		95.271E+00
			-83.50		96.114E+00
			-83.00		96.842E+00
			-82.50		97.544E+00
			-82.00		98.206E+00
			-81.50		98.813E+00
			-81.00		99.390E+00
			-80.50		99.932E+00
			-80.00		100.47E+00
			-79.50		101.04E+00
			-79.00		101.58E+00
			-78.50		101.95E+00
			-78.00		102.29E+00
			-77.50		102.78E+00
			-77.00		103.27E+00
			-76.50		103.65E+00
			-76.00		104.04E+00
			-75.50		104.38E+00
			-75.00		104.72E+00
			-74.50		105.08E+00
			-74.00		105.46E+00
			-73.50		105.85E+00
			-73.00		106.24E+00
			-72.50		106.62E+00
			-72.00		106.94E+00
			-71.50		107.26E+00
			-71.00		107.57E+00
			-70.50		107.88E+00
			-70.00		108.21E+00
			-69.50		108.54E+00
			-69.00		108.88E+00
			-68.50		109.21E+00
			-68.00		109.54E+00
			-67.50		109.88E+00
			-67.00		110.18E+00
			-66.50		110.46E+00
			-66.00		110.76E+00
			-65.50		111.04E+00
			-65.00		111.35E+00
			-64.50		111.67E+00
			-64.00		111.99E+00
			-63.50		112.30E+00
			-63.00		112.61E+00
			-62.50		112.92E+00
			-62.00		113.22E+00
			-61.50		113.53E+00
			-61.00		113.82E+00
			-60.50		114.10E+00
			-60.00		114.37E+00
			-59.50		114.60E+00
			-59.00		114.85E+00
			-58.50		115.12E+00
			-58.00		115.42E+00
			-57.50		115.71E+00
			-57.00		116.01E+00
			-56.50		116.29E+00
			-56.00		116.57E+00
			-55.50		116.83E+00
			-55.00		117.09E+00
			-54.50		117.35E+00
			-54.00		117.60E+00
			-53.50		117.86E+00
			-53.00		118.15E+00
			-52.50		118.44E+00
			-52.00		118.71E+00
			-51.50		118.96E+00
			-51.00		119.19E+00
			-50.50		119.40E+00
			-50.00		119.62E+00
			-49.50		119.87E+00
			-49.00		120.13E+00
			-48.50		120.38E+00
			-48.00		120.63E+00
			-47.50		120.86E+00
			-47.00		121.08E+00
			-46.50		121.29E+00
			-46.00		121.51E+00
			-45.50		121.74E+00
			-45.00		121.96E+00
			-44.50		122.21E+00
			-44.00		122.47E+00
			-43.50		122.71E+00
			-43.00		122.96E+00
			-42.50		123.18E+00
			-42.00		123.40E+00
			-41.50		123.62E+00
			-41.00		123.81E+00
			-40.50		124.01E+00
			-40.00		124.21E+00
			-39.50		124.42E+00
			-39.00		124.65E+00
			-38.50		124.88E+00
			-38.00		125.07E+00
			-37.50		125.26E+00
			-37.00		125.43E+00
			-36.50		125.60E+00
			-36.00		125.78E+00
			-35.50		125.96E+00
			-35.00		126.14E+00
			-34.50		126.29E+00
			-34.00		126.44E+00
			-33.50		126.60E+00
			-33.00		126.76E+00
			-32.50		126.96E+00
			-32.00		127.15E+00
			-31.50		127.32E+00
			-31.00		127.51E+00
			-30.50		127.65E+00
			-30.00		127.78E+00
			-29.50		127.92E+00
			-29.00		128.07E+00
			-28.50		128.22E+00
			-28.00		128.37E+00
			-27.50		128.52E+00
			-27.00		128.67E+00
			-26.50		128.82E+00
			-26.00		128.98E+00
			-25.50		129.14E+00
			-25.00		129.27E+00
			-24.50		129.42E+00
			-24.00		129.54E+00
			-23.50		129.65E+00
			-23.00		129.75E+00
			-22.50		129.85E+00
			-22.00		129.96E+00
			-21.50		130.07E+00
			-21.00		130.22E+00
			-20.50		130.39E+00
			-20.00		130.53E+00
			-19.50		130.67E+00
			-19.00		130.79E+00
			-18.50		130.88E+00
			-18.00		130.97E+00
			-17.50		131.07E+00
			-17.00		131.16E+00
			-16.50		131.27E+00
			-16.00		131.38E+00
			-15.50		131.45E+00
			-15.00		131.53E+00
			-14.50		131.57E+00
			-14.00		131.60E+00
			-13.50		131.65E+00
			-13.00		131.71E+00
			-12.50		131.80E+00
			-12.00		131.91E+00
			-11.50		132.00E+00
			-11.00		132.07E+00
			-10.50		132.13E+00
			-10.00		132.16E+00
			-9.50		132.19E+00
			-9.00		132.21E+00
			-8.50		132.23E+00
			-8.00		132.27E+00
			-7.50		132.32E+00
			-7.00		132.39E+00
			-6.50		132.45E+00
			-6.00		132.47E+00
			-5.50		132.48E+00
			-5.00		132.48E+00
			-4.50		132.48E+00
			-4.00		132.49E+00
			-3.50		132.50E+00
			-3.00		132.53E+00
			-2.50		132.56E+00
			-2.00		132.58E+00
			-1.50		132.61E+00
			-1.00		132.62E+00
			-0.50		132.62E+00
			0.00		132.62E+00
			0.50		132.62E+00
			1.00		132.62E+00
			1.50		132.61E+00
			2.00		132.58E+00
			2.50		132.56E+00
			3.00		132.53E+00
			3.50		132.50E+00
			4.00		132.49E+00
			4.50		132.48E+00
			5.00		132.48E+00
			5.50		132.48E+00
			6.00		132.47E+00
			6.50		132.45E+00
			7.00		132.39E+00
			7.50		132.32E+00
			8.00		132.27E+00
			8.50		132.23E+00
			9.00		132.21E+00
			9.50		132.19E+00
			10.00		132.16E+00
			10.50		132.13E+00
			11.00		132.07E+00
			11.50		132.00E+00
			12.00		131.91E+00
			12.50		131.80E+00
			13.00		131.71E+00
			13.50		131.65E+00
			14.00		131.60E+00
			14.50		131.57E+00
			15.00		131.53E+00
			15.50		131.45E+00
			16.00		131.38E+00
			16.50		131.27E+00
			17.00		131.16E+00
			17.50		131.07E+00
			18.00		130.97E+00
			18.50		130.88E+00
			19.00		130.79E+00
			19.50		130.67E+00
			20.00		130.53E+00
			20.50		130.39E+00
			21.00		130.22E+00
			21.50		130.07E+00
			22.00		129.96E+00
			22.50		129.85E+00
			23.00		129.75E+00
			23.50		129.65E+00
			24.00		129.54E+00
			24.50		129.42E+00
			25.00		129.27E+00
			25.50		129.14E+00
			26.00		128.98E+00
			26.50		128.82E+00
			27.00		128.67E+00
			27.50		128.52E+00
			28.00		128.37E+00
			28.50		128.22E+00
			29.00		128.07E+00
			29.50		127.92E+00
			30.00		127.78E+00
			30.50		127.65E+00
			31.00		127.51E+00
			31.50		127.32E+00
			32.00		127.15E+00
			32.50		126.96E+00
			33.00		126.76E+00
			33.50		126.60E+00
			34.00		126.44E+00
			34.50		126.29E+00
			35.00		126.14E+00
			35.50		125.96E+00
			36.00		125.78E+00
			36.50		125.60E+00
			37.00		125.43E+00
			37.50		125.26E+00
			38.00		125.07E+00
			38.50		124.88E+00
			39.00		124.65E+00
			39.50		124.42E+00
			40.00		124.21E+00
			40.50		124.01E+00
			41.00		123.81E+00
			41.50		123.62E+00
			42.00		123.40E+00
			42.50		123.18E+00
			43.00		122.96E+00
			43.50		122.71E+00
			44.00		122.47E+00
			44.50		122.21E+00
			45.00		121.96E+00
			45.50		121.74E+00
			46.00		121.51E+00
			46.50		121.29E+00
			47.00		121.08E+00
			47.50		120.86E+00
			48.00		120.63E+00
			48.50		120.38E+00
			49.00		120.13E+00
			49.50		119.87E+00
			50.00		119.62E+00
			50.50		119.40E+00
			51.00		119.19E+00
			51.50		118.96E+00
			52.00		118.71E+00
			52.50		118.44E+00
			53.00		118.15E+00
			53.50		117.86E+00
			54.00		117.60E+00
			54.50		117.35E+00
			55.00		117.09E+00
			55.50		116.83E+00
			56.00		116.57E+00
			56.50		116.29E+00
			57.00		116.01E+00
			57.50		115.71E+00
			58.00		115.42E+00
			58.50		115.12E+00
			59.00		114.85E+00
			59.50		114.60E+00
			60.00		114.37E+00
			60.50		114.10E+00
			61.00		113.82E+00
			61.50		113.53E+00
			62.00		113.22E+00
			62.50		112.92E+00
			63.00		112.61E+00
			63.50		112.30E+00
			64.00		111.99E+00
			64.50		111.67E+00
			65.00		111.35E+00
			65.50		111.04E+00
			66.00		110.76E+00
			66.50		110.46E+00
			67.00		110.18E+00
			67.50		109.88E+00
			68.00		109.54E+00
			68.50		109.21E+00
			69.00		108.88E+00
			69.50		108.54E+00
			70.00		108.21E+00
			70.50		107.88E+00
			71.00		107.57E+00
			71.50		107.26E+00
			72.00		106.94E+00
			72.50		106.62E+00
			73.00		106.24E+00
			73.50		105.85E+00
			74.00		105.46E+00
			74.50		105.08E+00
			75.00		104.72E+00
			75.50		104.38E+00
			76.00		104.04E+00
			76.50		103.65E+00
			77.00		103.27E+00
			77.50		102.78E+00
			78.00		102.29E+00
			78.50		101.95E+00
			79.00		101.58E+00
			79.50		101.04E+00
			80.00		100.47E+00
			80.50		99.932E+00
			81.00		99.390E+00
			81.50		98.813E+00
			82.00		98.206E+00
			82.50		97.544E+00
			83.00		96.842E+00
			83.50		96.114E+00
			84.00		95.271E+00
			84.50		94.353E+00
			85.00		93.321E+00
			85.50		92.219E+00
			86.00		90.798E+00
			86.50		89.308E+00
			87.00		87.415E+00
			87.50		85.457E+00
			88.00		82.850E+00
			88.50		80.090E+00
			89.00		76.959E+00
			89.50		73.702E+00
			90.00		70.057E+00
			90.50		66.139E+00
			91.00		62.238E+00
			91.50		58.344E+00
			92.00		54.458E+00
			92.50		50.555E+00
			93.00		46.719E+00
			93.50		43.259E+00
			94.00		39.884E+00
			94.50		37.022E+00
			95.00		34.238E+00
			95.50		32.051E+00
			96.00		29.986E+00
			96.50		28.409E+00
			97.00		26.991E+00
			97.50		25.919E+00
			98.00		25.049E+00
			98.50		24.275E+00
			99.00		23.583E+00
			99.50		22.952E+00
			100.00		22.452E+00
			100.50		21.979E+00
			101.00		21.568E+00
			101.50		21.177E+00
			102.00		20.862E+00
			102.50		20.552E+00
			103.00		20.254E+00
			103.50		19.959E+00
			104.00		19.706E+00
			104.50		19.462E+00
			105.00		19.224E+00
			105.50		18.998E+00
			106.00		18.784E+00
			106.50		18.563E+00
			107.00		18.345E+00
			107.50		18.166E+00
			108.00		17.979E+00
			108.50		17.734E+00
			109.00		17.501E+00
			109.50		17.351E+00
			110.00		17.201E+00
			110.50		17.016E+00
			111.00		16.831E+00
			111.50		16.622E+00
			112.00		16.403E+00
			112.50		16.260E+00
			113.00		16.143E+00
			113.50		15.983E+00
			114.00		15.802E+00
			114.50		15.631E+00
			115.00		15.468E+00
			115.50		15.314E+00
			116.00		15.192E+00
			116.50		15.060E+00
			117.00		14.887E+00
			117.50		14.718E+00
			118.00		14.582E+00
			118.50		14.451E+00
			119.00		14.345E+00
			119.50		14.236E+00
			120.00		14.088E+00
			120.50		13.940E+00
			121.00		13.795E+00
			121.50		13.646E+00
			122.00		13.506E+00
			122.50		13.392E+00
			123.00		13.285E+00
			123.50		13.174E+00
			124.00		13.066E+00
			124.50		12.970E+00
			125.00		12.868E+00
			125.50		12.720E+00
			126.00		12.568E+00
			126.50		12.431E+00
			127.00		12.306E+00
			127.50		12.359E+00
			128.00		12.272E+00
			128.50		12.160E+00
			129.00		12.046E+00
		END_DATA
	END_SCAN  6
	BEGIN_SCAN  7
		TASK_NAME=tba PDD Profiles
		PROGRAM=WaterTankScans
		COMMENT=Gemelli
		MEAS_DATE=08-Feb-2021 09:38:10
		LINAC=MRIdian
		MODALITY=X
		ISOCENTER=900.00
		INPLANE_AXIS=Y
		CROSSPLANE_AXIS=X
		DEPTH_AXIS=Depth
		INPLANE_AXIS_DIR=TARGET_GUN
		CROSSPLANE_AXIS_DIR=LEFT_RIGHT
		DEPTH_AXIS_DIR=UP_DOWN
		ENERGY=6.00
		NOMINAL_DMAX=15.00
		SSD=850.00
		SCD=450.00
		WEDGE_ANGLE=0.00
		FIELD_INPLANE=149.40
		FIELD_CROSSPLANE=149.40
		FIELD_TYPE=RECTANGULAR
		GANTRY=0.00
		GANTRY_UPRIGHT_POSITION=0
		GANTRY_ROTATION=CW
		COLL_ANGLE=0.00
		COLL_OFFSET_INPLANE=0.00
		COLL_OFFSET_CROSSPLANE=0.00
		SCAN_DEVICE=BeamScan
		SCAN_DEVICE_SETUP=BARA_LEFT_RIGHT
		ELECTROMETER=BeamScan
		RANGE_FIELD=LOW
		RANGE_REFERENCE=MEDIUM
		DETECTOR=THIMBLE_CHAMBER
		DETECTOR_RADIUS=2.40
		DETECTOR_NAME=A28MR
		DETECTOR_SN=-
		DETECTOR_CALIBRATION=588000000.00
		DETECTOR_IS_CALIBRATED=0
		DETECTOR_REFERENCE=THIMBLE_CHAMBER
		DETECTOR_REFERENCE_RADIUS=2.75
		DETECTOR_REFERENCE_NAME=A28MR
		DETECTOR_REFERENCE_SN=—
		DETECTOR_REFERENCE_IS_CALIBRATED=0
		DETECTOR_REFERENCE_CALIBRATION=303000000.00
		DETECTOR_HV=300.0
		DETECTOR_REFERENCE_HV=300.0
		DETECTOR_ORIENTATION=HORIZONTAL
		FILTER=FFF
		SCAN_SPEED_PROFILE=10.00
		SCAN_PROF_SPEED_DEP=DEPTH
		SCAN_SPEED_PDD=0.00
		SCAN_PDD_SPEED_DEP=ENERGY
		DETECTOR_TYPE=A28MR
		REF_FIELD_DEPTH=220.00
		REF_FIELD_DEFINED=ISOCENTER
		REF_FIELD_INPLANE=100.00
		REF_FIELD_CROSSPLANE=100.00
		REF_SCAN_POSITIONS=-85.00;-84.00;-83.00;-82.00;-81.00;-80.00;-79.00;-78.00;-77.00;-76.00;-75.00;-74.00;-73.00;-72.00;-71.00;-70.00;-69.00;-68.00;-67.00;-66.00;-65.00;-64.00;-63.00;-62.00;-61.00;-60.00;-59.00;-58.00;-57.00;-56.00;-55.00;-54.00;-53.00;-52.00;-51.00;-50.00;-49.00;-48.00;-47.00;-46.00;-45.00;-44.00;-43.00;-42.00;-41.00;-40.00;-39.00;-38.00;-37.00;-36.00;-35.00;-34.00;-33.00;-32.00;-31.00;-30.00;-29.00;-28.00;-27.00;-26.00;-25.00;-24.00;-23.00;-22.00;-21.00;-20.00;-19.00;-18.00;-17.00;-16.00;-15.00;-14.00;-13.00;-12.00;-11.00;-10.00;-9.00;-8.00;-7.00;-6.00;-5.00;-4.00;-3.00;-2.00;-1.00;0.00;1.00;2.00;3.00;4.00;5.00;6.00;7.00;8.00;9.00;10.00;11.00;12.00;13.00;14.00;15.00;16.00;17.00;18.00;19.00;20.00;21.00;22.00;23.00;24.00;25.00;26.00;27.00;28.00;29.00;30.00;31.00;32.00;33.00;34.00;35.00;36.00;37.00;38.00;39.00;40.00;41.00;42.00;43.00;44.00;45.00;46.00;47.00;48.00;49.00;50.00;51.00;52.00;53.00;54.00;55.00;56.00;57.00;58.00;59.00;60.00;61.00;62.00;63.00;64.00;65.00;66.00;67.00;68.00;69.00;70.00;71.00;72.00;73.00;74.00;75.00;76.00;77.00;78.00;79.00;80.00;81.00;82.00;83.00;84.00;85.00;
		REF_OVERSCAN_FACTOR=1.00
		SCAN_CURVETYPE=CROSSPLANE_PROFILE
		SCAN_DEPTH=285.00
		SCAN_OFFAXIS_INPLANE=0.00
		SCAN_OFFAXIS_CROSSPLANE=0.00
		SCAN_ANGLE=0.00
		SCAN_DIAGONAL=NOT_DIAGONAL
		SCAN_DIRECTION=POSITIVE
		MEAS_MEDIUM=WATER
		MEAS_PRESET=MEAS_CONTINUOUS_REFERENCE_SCAN
		MEAS_TIME=0.100
		MEAS_UNIT=A.U.
		INCLINATION_ANGLE=0.00
		PRESSURE=1013.25
		TEMPERATURE=20.00
		NORM_TEMPERATURE=20.00
		CORRECTION_FACTOR=1.0000
		EXPECTED_MAX_DOSE_RATE=3.00
		EPOM_DEPTH_SHIFT=0.2
		EPOM_MODE=SHIFT_PROTOCOL
		CORRECTIONS=SMOOTHED_CORR;CAX_CORR;INTERPOLATED_CORR;SYMMETRY_CORR;
		BEGIN_DATA
			-129.00		11.062E+00
			-128.50		11.123E+00
			-128.00		11.185E+00
			-127.50		11.291E+00
			-127.00		11.397E+00
			-126.50		11.337E+00
			-126.00		11.443E+00
			-125.50		11.548E+00
			-125.00		11.634E+00
			-124.50		11.726E+00
			-124.00		11.838E+00
			-123.50		11.948E+00
			-123.00		12.054E+00
			-122.50		12.163E+00
			-122.00		12.277E+00
			-121.50		12.382E+00
			-121.00		12.479E+00
			-120.50		12.585E+00
			-120.00		12.728E+00
			-119.50		12.878E+00
			-119.00		13.012E+00
			-118.50		13.135E+00
			-118.00		13.250E+00
			-117.50		13.368E+00
			-117.00		13.499E+00
			-116.50		13.656E+00
			-116.00		13.819E+00
			-115.50		13.938E+00
			-115.00		14.047E+00
			-114.50		14.188E+00
			-114.00		14.344E+00
			-113.50		14.484E+00
			-113.00		14.611E+00
			-112.50		14.778E+00
			-112.00		14.969E+00
			-111.50		15.129E+00
			-111.00		15.256E+00
			-110.50		15.403E+00
			-110.00		15.578E+00
			-109.50		15.749E+00
			-109.00		15.911E+00
			-108.50		16.076E+00
			-108.00		16.236E+00
			-107.50		16.394E+00
			-107.00		16.609E+00
			-106.50		16.846E+00
			-106.00		17.082E+00
			-105.50		17.309E+00
			-105.00		17.557E+00
			-104.50		17.826E+00
			-104.00		18.130E+00
			-103.50		18.439E+00
			-103.00		18.806E+00
			-102.50		19.186E+00
			-102.00		19.637E+00
			-101.50		20.147E+00
			-101.00		20.781E+00
			-100.50		21.510E+00
			-100.00		22.307E+00
			-99.50		23.272E+00
			-99.00		24.391E+00
			-98.50		25.918E+00
			-98.00		27.556E+00
			-97.50		29.616E+00
			-97.00		31.839E+00
			-96.50		34.396E+00
			-96.00		37.049E+00
			-95.50		39.919E+00
			-95.00		42.854E+00
			-94.50		45.944E+00
			-94.00		49.074E+00
			-93.50		52.212E+00
			-93.00		55.298E+00
			-92.50		58.244E+00
			-92.00		60.990E+00
			-91.50		63.612E+00
			-91.00		65.892E+00
			-90.50		68.067E+00
			-90.00		69.917E+00
			-89.50		71.615E+00
			-89.00		72.908E+00
			-88.50		74.111E+00
			-88.00		75.128E+00
			-87.50		76.098E+00
			-87.00		76.868E+00
			-86.50		77.560E+00
			-86.00		78.225E+00
			-85.50		78.889E+00
			-85.00		79.475E+00
			-84.50		79.985E+00
			-84.00		80.471E+00
			-83.50		80.950E+00
			-83.00		81.410E+00
			-82.50		81.814E+00
			-82.00		82.221E+00
			-81.50		82.598E+00
			-81.00		82.959E+00
			-80.50		83.313E+00
			-80.00		83.670E+00
			-79.50		83.984E+00
			-79.00		84.290E+00
			-78.50		84.603E+00
			-78.00		84.901E+00
			-77.50		85.200E+00
			-77.00		85.497E+00
			-76.50		85.783E+00
			-76.00		86.054E+00
			-75.50		86.337E+00
			-75.00		86.605E+00
			-74.50		86.863E+00
			-74.00		87.130E+00
			-73.50		87.395E+00
			-73.00		87.668E+00
			-72.50		87.952E+00
			-72.00		88.257E+00
			-71.50		88.558E+00
			-71.00		88.850E+00
			-70.50		89.146E+00
			-70.00		89.393E+00
			-69.50		89.629E+00
			-69.00		89.856E+00
			-68.50		90.051E+00
			-68.00		90.264E+00
			-67.50		90.493E+00
			-67.00		90.715E+00
			-66.50		90.969E+00
			-66.00		91.218E+00
			-65.50		91.467E+00
			-65.00		91.724E+00
			-64.50		91.990E+00
			-64.00		92.251E+00
			-63.50		92.506E+00
			-63.00		92.758E+00
			-62.50		92.980E+00
			-62.00		93.189E+00
			-61.50		93.408E+00
			-61.00		93.610E+00
			-60.50		93.817E+00
			-60.00		94.046E+00
			-59.50		94.257E+00
			-59.00		94.479E+00
			-58.50		94.702E+00
			-58.00		94.913E+00
			-57.50		95.133E+00
			-57.00		95.357E+00
			-56.50		95.578E+00
			-56.00		95.794E+00
			-55.50		96.007E+00
			-55.00		96.218E+00
			-54.50		96.428E+00
			-54.00		96.656E+00
			-53.50		96.885E+00
			-53.00		97.110E+00
			-52.50		97.343E+00
			-52.00		97.547E+00
			-51.50		97.744E+00
			-51.00		97.939E+00
			-50.50		98.104E+00
			-50.00		98.278E+00
			-49.50		98.452E+00
			-49.00		98.623E+00
			-48.50		98.803E+00
			-48.00		98.985E+00
			-47.50		99.160E+00
			-47.00		99.338E+00
			-46.50		99.514E+00
			-46.00		99.683E+00
			-45.50		99.879E+00
			-45.00		100.08E+00
			-44.50		100.26E+00
			-44.00		100.45E+00
			-43.50		100.62E+00
			-43.00		100.78E+00
			-42.50		100.94E+00
			-42.00		101.11E+00
			-41.50		101.28E+00
			-41.00		101.46E+00
			-40.50		101.63E+00
			-40.00		101.79E+00
			-39.50		101.95E+00
			-39.00		102.10E+00
			-38.50		102.24E+00
			-38.00		102.39E+00
			-37.50		102.56E+00
			-37.00		102.71E+00
			-36.50		102.88E+00
			-36.00		103.04E+00
			-35.50		103.17E+00
			-35.00		103.30E+00
			-34.50		103.43E+00
			-34.00		103.56E+00
			-33.50		103.69E+00
			-33.00		103.82E+00
			-32.50		103.93E+00
			-32.00		104.05E+00
			-31.50		104.18E+00
			-31.00		104.29E+00
			-30.50		104.40E+00
			-30.00		104.51E+00
			-29.50		104.64E+00
			-29.00		104.77E+00
			-28.50		104.91E+00
			-28.00		105.07E+00
			-27.50		105.21E+00
			-27.00		105.33E+00
			-26.50		105.45E+00
			-26.00		105.51E+00
			-25.50		105.58E+00
			-25.00		105.68E+00
			-24.50		105.80E+00
			-24.00		105.95E+00
			-23.50		106.10E+00
			-23.00		106.21E+00
			-22.50		106.32E+00
			-22.00		106.42E+00
			-21.50		106.51E+00
			-21.00		106.63E+00
			-20.50		106.74E+00
			-20.00		106.83E+00
			-19.50		106.91E+00
			-19.00		106.98E+00
			-18.50		107.03E+00
			-18.00		107.07E+00
			-17.50		107.12E+00
			-17.00		107.15E+00
			-16.50		107.20E+00
			-16.00		107.25E+00
			-15.50		107.29E+00
			-15.00		107.33E+00
			-14.50		107.42E+00
			-14.00		107.49E+00
			-13.50		107.58E+00
			-13.00		107.68E+00
			-12.50		107.76E+00
			-12.00		107.82E+00
			-11.50		107.87E+00
			-11.00		107.89E+00
			-10.50		107.91E+00
			-10.00		107.93E+00
			-9.50		107.96E+00
			-9.00		107.98E+00
			-8.50		108.01E+00
			-8.00		108.02E+00
			-7.50		108.04E+00
			-7.00		108.06E+00
			-6.50		108.06E+00
			-6.00		108.09E+00
			-5.50		108.13E+00
			-5.00		108.17E+00
			-4.50		108.23E+00
			-4.00		108.25E+00
			-3.50		108.28E+00
			-3.00		108.29E+00
			-2.50		108.26E+00
			-2.00		108.26E+00
			-1.50		108.26E+00
			-1.00		108.25E+00
			-0.50		108.27E+00
			0.00		108.28E+00
			0.50		108.27E+00
			1.00		108.25E+00
			1.50		108.26E+00
			2.00		108.26E+00
			2.50		108.26E+00
			3.00		108.29E+00
			3.50		108.28E+00
			4.00		108.25E+00
			4.50		108.23E+00
			5.00		108.17E+00
			5.50		108.13E+00
			6.00		108.09E+00
			6.50		108.06E+00
			7.00		108.06E+00
			7.50		108.04E+00
			8.00		108.02E+00
			8.50		108.01E+00
			9.00		107.98E+00
			9.50		107.96E+00
			10.00		107.93E+00
			10.50		107.91E+00
			11.00		107.89E+00
			11.50		107.87E+00
			12.00		107.82E+00
			12.50		107.76E+00
			13.00		107.68E+00
			13.50		107.58E+00
			14.00		107.49E+00
			14.50		107.42E+00
			15.00		107.33E+00
			15.50		107.29E+00
			16.00		107.25E+00
			16.50		107.20E+00
			17.00		107.15E+00
			17.50		107.12E+00
			18.00		107.07E+00
			18.50		107.03E+00
			19.00		106.98E+00
			19.50		106.91E+00
			20.00		106.83E+00
			20.50		106.74E+00
			21.00		106.63E+00
			21.50		106.51E+00
			22.00		106.42E+00
			22.50		106.32E+00
			23.00		106.21E+00
			23.50		106.10E+00
			24.00		105.95E+00
			24.50		105.80E+00
			25.00		105.68E+00
			25.50		105.58E+00
			26.00		105.51E+00
			26.50		105.45E+00
			27.00		105.33E+00
			27.50		105.21E+00
			28.00		105.07E+00
			28.50		104.91E+00
			29.00		104.77E+00
			29.50		104.64E+00
			30.00		104.51E+00
			30.50		104.40E+00
			31.00		104.29E+00
			31.50		104.18E+00
			32.00		104.05E+00
			32.50		103.93E+00
			33.00		103.82E+00
			33.50		103.69E+00
			34.00		103.56E+00
			34.50		103.43E+00
			35.00		103.30E+00
			35.50		103.17E+00
			36.00		103.04E+00
			36.50		102.88E+00
			37.00		102.71E+00
			37.50		102.56E+00
			38.00		102.39E+00
			38.50		102.24E+00
			39.00		102.10E+00
			39.50		101.95E+00
			40.00		101.79E+00
			40.50		101.63E+00
			41.00		101.46E+00
			41.50		101.28E+00
			42.00		101.11E+00
			42.50		100.94E+00
			43.00		100.78E+00
			43.50		100.62E+00
			44.00		100.45E+00
			44.50		100.26E+00
			45.00		100.08E+00
			45.50		99.879E+00
			46.00		99.683E+00
			46.50		99.514E+00
			47.00		99.338E+00
			47.50		99.160E+00
			48.00		98.985E+00
			48.50		98.803E+00
			49.00		98.623E+00
			49.50		98.452E+00
			50.00		98.278E+00
			50.50		98.104E+00
			51.00		97.939E+00
			51.50		97.744E+00
			52.00		97.547E+00
			52.50		97.343E+00
			53.00		97.110E+00
			53.50		96.885E+00
			54.00		96.656E+00
			54.50		96.428E+00
			55.00		96.218E+00
			55.50		96.007E+00
			56.00		95.794E+00
			56.50		95.578E+00
			57.00		95.357E+00
			57.50		95.133E+00
			58.00		94.913E+00
			58.50		94.702E+00
			59.00		94.479E+00
			59.50		94.257E+00
			60.00		94.046E+00
			60.50		93.817E+00
			61.00		93.610E+00
			61.50		93.408E+00
			62.00		93.189E+00
			62.50		92.980E+00
			63.00		92.758E+00
			63.50		92.506E+00
			64.00		92.251E+00
			64.50		91.990E+00
			65.00		91.724E+00
			65.50		91.467E+00
			66.00		91.218E+00
			66.50		90.969E+00
			67.00		90.715E+00
			67.50		90.493E+00
			68.00		90.264E+00
			68.50		90.051E+00
			69.00		89.856E+00
			69.50		89.629E+00
			70.00		89.393E+00
			70.50		89.146E+00
			71.00		88.850E+00
			71.50		88.558E+00
			72.00		88.257E+00
			72.50		87.952E+00
			73.00		87.668E+00
			73.50		87.395E+00
			74.00		87.130E+00
			74.50		86.863E+00
			75.00		86.605E+00
			75.50		86.337E+00
			76.00		86.054E+00
			76.50		85.783E+00
			77.00		85.497E+00
			77.50		85.200E+00
			78.00		84.901E+00
			78.50		84.603E+00
			79.00		84.290E+00
			79.50		83.984E+00
			80.00		83.670E+00
			80.50		83.313E+00
			81.00		82.959E+00
			81.50		82.598E+00
			82.00		82.221E+00
			82.50		81.814E+00
			83.00		81.410E+00
			83.50		80.950E+00
			84.00		80.471E+00
			84.50		79.985E+00
			85.00		79.475E+00
			85.50		78.889E+00
			86.00		78.225E+00
			86.50		77.560E+00
			87.00		76.868E+00
			87.50		76.098E+00
			88.00		75.128E+00
			88.50		74.111E+00
			89.00		72.908E+00
			89.50		71.615E+00
			90.00		69.917E+00
			90.50		68.067E+00
			91.00		65.892E+00
			91.50		63.612E+00
			92.00		60.990E+00
			92.50		58.244E+00
			93.00		55.298E+00
			93.50		52.212E+00
			94.00		49.074E+00
			94.50		45.944E+00
			95.00		42.854E+00
			95.50		39.919E+00
			96.00		37.049E+00
			96.50		34.396E+00
			97.00		31.839E+00
			97.50		29.616E+00
			98.00		27.556E+00
			98.50		25.918E+00
			99.00		24.391E+00
			99.50		23.272E+00
			100.00		22.307E+00
			100.50		21.510E+00
			101.00		20.781E+00
			101.50		20.147E+00
			102.00		19.637E+00
			102.50		19.186E+00
			103.00		18.806E+00
			103.50		18.439E+00
			104.00		18.130E+00
			104.50		17.826E+00
			105.00		17.557E+00
			105.50		17.309E+00
			106.00		17.082E+00
			106.50		16.846E+00
			107.00		16.609E+00
			107.50		16.394E+00
			108.00		16.236E+00
			108.50		16.076E+00
			109.00		15.911E+00
			109.50		15.749E+00
			110.00		15.578E+00
			110.50		15.403E+00
			111.00		15.256E+00
			111.50		15.129E+00
			112.00		14.969E+00
			112.50		14.778E+00
			113.00		14.611E+00
			113.50		14.484E+00
			114.00		14.344E+00
			114.50		14.188E+00
			115.00		14.047E+00
			115.50		13.938E+00
			116.00		13.819E+00
			116.50		13.656E+00
			117.00		13.499E+00
			117.50		13.368E+00
			118.00		13.250E+00
			118.50		13.135E+00
			119.00		13.012E+00
			119.50		12.878E+00
			120.00		12.728E+00
			120.50		12.585E+00
			121.00		12.479E+00
			121.50		12.382E+00
			122.00		12.277E+00
			122.50		12.163E+00
			123.00		12.054E+00
			123.50		11.948E+00
			124.00		11.838E+00
			124.50		11.726E+00
			125.00		11.634E+00
			125.50		11.548E+00
			126.00		11.443E+00
			126.50		11.337E+00
			127.00		11.397E+00
			127.50		11.291E+00
			128.00		11.185E+00
			128.50		11.123E+00
			129.00		11.062E+00
		END_DATA
	END_SCAN  7
END_SCAN_DATA
